##Deconvoluted mass spectrum
1000.0 	 1
3497.9 	 0
3498.1 	 8
3498.2 	 11
3498.3 	 14
3498.4 	 18
3498.5 	 21
3498.6 	 24
3498.7 	 27
3498.8 	 30
3498.9 	 33
3499.0 	 36
3499.1 	 36
3499.2 	 35
3499.3 	 34
3499.4 	 33
3499.5 	 32
3499.6 	 31
3499.7 	 30
3499.8 	 28
3499.9 	 27
3500.0 	 26
3500.1 	 25
3500.2 	 25
3500.3 	 24
3500.4 	 24
3500.5 	 24
3500.6 	 24
3500.7 	 25
3500.8 	 25
3500.9 	 25
3501.0 	 26
3501.1 	 25
3501.2 	 24
3501.3 	 23
3501.4 	 22
3501.5 	 21
3501.6 	 20
3501.7 	 18
3501.8 	 15
3501.9 	 13
3502.0 	 11
3502.1 	 9
3502.2 	 7
3502.3 	 6
3502.4 	 4
3502.5 	 3
3502.6 	 0
3915.4 	 0
3915.6 	 14
3915.7 	 20
3915.8 	 26
3915.9 	 32
3916.0 	 38
3916.1 	 42
3916.2 	 46
3916.3 	 50
3916.4 	 54
3916.5 	 58
3916.6 	 57
3916.7 	 53
3916.8 	 48
3916.9 	 43
3917.0 	 39
3917.1 	 34
3917.2 	 28
3917.3 	 22
3917.4 	 16
3917.5 	 10
3917.6 	 0
3970.7 	 0
3973.6 	 10
3973.7 	 10
3973.8 	 9
3973.9 	 8
3974.0 	 8
3974.1 	 6
3974.2 	 6
3974.3 	 4
3974.4 	 4
3974.5 	 3
3974.6 	 3
3974.7 	 4
3976.0 	 6
3976.1 	 7
3976.2 	 7
3976.3 	 7
3976.4 	 8
3976.5 	 9
3976.6 	 9
3976.7 	 10
3976.8 	 11
3976.9 	 11
3977.0 	 10
3977.1 	 9
3977.2 	 9
3977.3 	 8
3977.4 	 7
3977.5 	 7
3977.6 	 6
3977.7 	 5
3977.8 	 4
3977.9 	 3
3978.0 	 2
3978.1 	 0
4600.4 	 0
4600.5 	 7
4600.6 	 9
4600.7 	 10
4600.8 	 12
4600.9 	 14
4601.0 	 16
4601.1 	 18
4601.2 	 20
4601.3 	 21
4601.4 	 22
4601.5 	 23
4601.6 	 25
4601.7 	 26
4601.8 	 27
4601.9 	 28
4602.0 	 28
4602.1 	 28
4602.2 	 28
4602.3 	 27
4602.4 	 27
4602.5 	 27
4602.6 	 27
4602.7 	 26
4602.8 	 25
4602.9 	 24
4603.0 	 24
4603.1 	 23
4603.2 	 22
4603.3 	 22
4603.4 	 21
4603.5 	 20
4603.6 	 19
4603.7 	 18
4603.8 	 17
4603.9 	 16
4604.0 	 16
4604.1 	 15
4604.2 	 14
4604.3 	 13
4604.4 	 12
4604.5 	 11
4604.6 	 10
4604.7 	 10
4604.8 	 9
4604.9 	 8
4605.0 	 7
4605.1 	 6
4605.2 	 5
4605.3 	 4
4605.5 	 0
6104.8 	 0
6104.9 	 10
6105.0 	 14
6105.1 	 18
6105.2 	 22
6105.3 	 26
6105.4 	 30
6105.5 	 34
6105.6 	 38
6105.7 	 42
6105.8 	 47
6105.9 	 53
6106.0 	 58
6106.1 	 64
6106.2 	 69
6106.3 	 74
6106.4 	 80
6106.5 	 83
6106.6 	 89
6106.7 	 91
6106.8 	 93
6106.9 	 95
6107.0 	 97
6107.1 	 100
6107.2 	 102
6107.3 	 103
6107.4 	 102
6107.5 	 102
6107.6 	 101
6107.7 	 100
6107.8 	 100
6107.9 	 99
6108.0 	 99
6108.1 	 98
6108.2 	 96
6108.3 	 95
6108.4 	 93
6108.5 	 91
6108.6 	 89
6108.7 	 86
6108.8 	 84
6108.9 	 82
6109.0 	 81
6109.1 	 80
6109.2 	 79
6109.3 	 78
6109.4 	 76
6109.5 	 74
6109.6 	 72
6109.7 	 70
6109.8 	 67
6109.9 	 64
6110.0 	 61
6110.1 	 58
6110.2 	 56
6110.3 	 53
6110.4 	 51
6110.5 	 48
6110.6 	 45
6110.7 	 42
6110.8 	 39
6110.9 	 36
6111.0 	 33
6111.1 	 30
6111.2 	 27
6111.3 	 24
6111.4 	 22
6111.5 	 20
6111.6 	 17
6111.7 	 15
6111.8 	 13
6111.9 	 10
6112.0 	 5
6112.1 	 0
6112.2 	 0
6720.3 	 0
6720.4 	 15
6720.5 	 16
6720.6 	 17
6720.7 	 18
6720.8 	 19
6720.9 	 20
6721.0 	 21
6721.1 	 22
6721.2 	 22
6721.3 	 23
6721.4 	 22
6721.5 	 21
6721.6 	 20
6721.7 	 19
6721.8 	 18
6721.9 	 17
6722.0 	 16
6722.1 	 16
6722.3 	 0
7146.0 	 0
7146.1 	 16
7146.2 	 18
7146.3 	 20
7146.4 	 23
7146.5 	 25
7146.6 	 28
7146.7 	 30
7146.8 	 32
7146.9 	 35
7147.0 	 37
7147.1 	 39
7147.2 	 41
7147.3 	 42
7147.4 	 44
7147.5 	 45
7147.6 	 46
7147.7 	 48
7147.8 	 49
7147.9 	 50
7148.0 	 52
7148.1 	 53
7148.2 	 51
7148.3 	 49
7148.4 	 47
7148.5 	 45
7148.6 	 43
7148.7 	 41
7148.8 	 39
7148.9 	 37
7149.0 	 35
7149.1 	 32
7149.2 	 30
7149.3 	 28
7149.4 	 25
7149.5 	 23
7149.6 	 20
7149.7 	 18
7149.8 	 16
7149.9 	 13
7150.0 	 11
7150.1 	 9
7150.2 	 9
7150.3 	 9
7150.4 	 9
7150.5 	 9
7152.2 	 0
7152.3 	 3
7152.4 	 3
7152.5 	 4
7152.6 	 4
7152.7 	 4
7152.8 	 5
7152.9 	 5
7153.0 	 6
7153.1 	 6
7153.2 	 6
7153.3 	 7
7153.4 	 7
7153.5 	 7
7153.6 	 7
7153.7 	 8
7153.8 	 8
7153.9 	 8
7154.0 	 8
7154.1 	 8
7154.2 	 8
7154.3 	 9
7154.4 	 9
7154.5 	 9
7154.6 	 9
7154.7 	 9
7154.8 	 8
7154.9 	 8
7155.0 	 8
7155.1 	 8
7155.2 	 8
7155.3 	 8
7155.4 	 7
7155.5 	 7
7155.6 	 7
7155.7 	 7
7155.8 	 6
7155.9 	 6
7156.0 	 6
7156.1 	 6
7156.2 	 5
7156.3 	 5
7156.4 	 5
7156.5 	 4
7156.6 	 4
7156.7 	 4
7156.8 	 4
7156.9 	 4
7157.0 	 3
7157.1 	 3
7157.2 	 3
7157.3 	 3
7157.4 	 3
7157.5 	 2
7157.6 	 2
7157.7 	 2
7157.9 	 0
7158.2 	 0
7170.9 	 0
7171.0 	 3
7171.1 	 3
7171.2 	 4
7171.3 	 4
7171.4 	 4
7171.5 	 4
7171.6 	 5
7171.7 	 5
7171.8 	 5
7171.9 	 6
7172.0 	 6
7172.1 	 6
7172.2 	 7
7172.3 	 7
7172.4 	 8
7172.5 	 9
7172.6 	 9
7172.7 	 10
7172.8 	 10
7172.9 	 11
7173.0 	 12
7173.1 	 12
7173.2 	 13
7173.3 	 14
7173.4 	 15
7173.5 	 16
7173.6 	 17
7173.7 	 18
7173.8 	 19
7173.9 	 20
7174.0 	 20
7174.1 	 21
7174.2 	 22
7174.3 	 23
7174.4 	 24
7174.5 	 26
7174.6 	 27
7174.7 	 29
7174.8 	 30
7174.9 	 31
7175.0 	 33
7175.1 	 34
7175.2 	 36
7175.3 	 37
7175.4 	 38
7175.5 	 39
7175.6 	 40
7175.7 	 41
7175.8 	 42
7175.9 	 43
7176.0 	 44
7176.1 	 45
7176.2 	 46
7176.3 	 47
7176.4 	 48
7176.5 	 49
7176.6 	 50
7176.7 	 50
7176.8 	 51
7176.9 	 51
7177.0 	 52
7177.1 	 64
7177.2 	 66
7177.3 	 67
7177.4 	 68
7177.5 	 69
7177.6 	 71
7177.7 	 71
7177.8 	 72
7177.9 	 72
7178.0 	 73
7178.1 	 73
7178.2 	 73
7178.3 	 72
7178.4 	 71
7178.5 	 70
7178.6 	 70
7178.7 	 69
7178.8 	 68
7178.9 	 66
7179.0 	 66
7179.1 	 64
7179.2 	 64
7179.3 	 63
7179.4 	 63
7179.5 	 62
7179.6 	 51
7179.7 	 50
7179.8 	 50
7179.9 	 49
7180.0 	 48
7180.1 	 47
7180.2 	 46
7180.3 	 45
7180.4 	 44
7180.5 	 44
7180.6 	 43
7180.7 	 42
7180.8 	 41
7180.9 	 40
7181.0 	 38
7181.1 	 36
7181.2 	 34
7181.3 	 32
7181.4 	 31
7181.5 	 29
7181.6 	 34
7181.7 	 32
7181.8 	 30
7181.9 	 28
7182.0 	 26
7182.1 	 24
7182.2 	 23
7182.3 	 22
7182.4 	 21
7182.5 	 20
7182.6 	 19
7182.7 	 18
7182.8 	 17
7182.9 	 16
7183.0 	 15
7183.1 	 10
7183.2 	 10
7183.3 	 9
7183.4 	 9
7183.5 	 8
7183.6 	 8
7183.7 	 8
7183.8 	 7
7183.9 	 7
7184.0 	 6
7184.2 	 0
7272.9 	 0
7273.0 	 2
7273.1 	 3
7273.2 	 4
7273.3 	 5
7273.4 	 5
7273.5 	 6
7273.6 	 7
7273.7 	 8
7273.8 	 8
7273.9 	 9
7274.0 	 10
7274.1 	 10
7274.2 	 11
7274.3 	 12
7274.4 	 12
7274.5 	 13
7274.6 	 14
7274.7 	 14
7274.8 	 15
7274.9 	 14
7275.0 	 14
7275.1 	 13
7275.2 	 12
7275.3 	 12
7275.4 	 11
7275.5 	 10
7275.6 	 10
7275.7 	 9
7275.8 	 8
7275.9 	 7
7276.0 	 6
7276.1 	 6
7276.2 	 5
7276.3 	 4
7276.4 	 3
7276.5 	 3
7276.7 	 0
8041.0 	 0
8049.6 	 40
8049.7 	 39
8049.8 	 39
8049.9 	 39
8050.0 	 39
8050.1 	 39
8050.2 	 40
8050.3 	 41
8050.4 	 42
8050.5 	 42
8050.6 	 43
8050.7 	 44
8050.8 	 45
8050.9 	 46
8051.0 	 46
8051.1 	 47
8051.2 	 47
8051.3 	 47
8051.4 	 47
8051.5 	 47
8051.6 	 46
8051.7 	 46
8051.8 	 46
8051.9 	 46
8052.0 	 46
8052.1 	 46
8052.2 	 44
8052.3 	 42
8052.4 	 41
8052.5 	 39
8052.6 	 38
8052.7 	 36
8052.8 	 34
8052.9 	 33
8053.0 	 31
8053.1 	 30
8053.2 	 28
8053.3 	 26
8053.4 	 24
8053.5 	 22
8053.6 	 20
8053.7 	 18
8053.8 	 16
8053.9 	 14
8054.0 	 12
8054.2 	 0
8395.0 	 0
8395.1 	 4
8395.2 	 6
8395.3 	 8
8395.4 	 10
8395.5 	 11
8395.6 	 13
8395.7 	 15
8395.8 	 16
8395.9 	 18
8396.0 	 20
8396.1 	 21
8396.2 	 23
8396.3 	 25
8396.4 	 27
8396.5 	 29
8396.6 	 30
8396.7 	 32
8396.8 	 34
8396.9 	 36
8397.0 	 38
8397.1 	 39
8397.2 	 39
8397.3 	 40
8397.4 	 40
8397.5 	 40
8397.6 	 41
8397.7 	 41
8397.8 	 41
8397.9 	 42
8398.0 	 42
8398.1 	 42
8398.2 	 40
8398.3 	 37
8398.4 	 35
8398.5 	 33
8398.6 	 31
8398.7 	 29
8398.8 	 27
8398.9 	 25
8399.0 	 23
8399.1 	 21
8399.2 	 19
8399.3 	 17
8399.4 	 15
8399.5 	 13
8399.6 	 12
8399.7 	 10
8399.8 	 8
8399.9 	 6
8400.0 	 4
8400.2 	 0
8400.6 	 0
8400.8 	 19
8400.9 	 20
8401.0 	 20
8401.1 	 21
8401.2 	 22
8401.3 	 23
8401.4 	 24
8401.5 	 25
8401.6 	 26
8401.7 	 26
8401.8 	 27
8401.9 	 28
8402.0 	 29
8402.1 	 29
8402.2 	 28
8402.3 	 28
8402.4 	 28
8402.5 	 28
8402.6 	 28
8402.7 	 27
8402.8 	 27
8402.9 	 27
8403.0 	 27
8403.1 	 26
8403.2 	 26
8403.3 	 26
8403.4 	 26
8403.5 	 25
8403.6 	 24
8403.7 	 24
8403.8 	 23
8403.9 	 23
8404.0 	 22
8404.1 	 22
8404.2 	 21
8404.3 	 21
8404.4 	 20
8404.5 	 20
8404.6 	 19
8404.7 	 19
8404.8 	 18
8404.9 	 18
8405.0 	 18
8405.1 	 17
8405.2 	 17
8405.3 	 16
8405.4 	 16
8405.5 	 16
8405.6 	 15
8405.7 	 15
8405.8 	 14
8405.9 	 14
8406.0 	 0
8432.0 	 0
8432.1 	 3
8432.2 	 4
8432.3 	 4
8432.4 	 4
8432.5 	 5
8432.6 	 5
8432.7 	 6
8432.8 	 6
8432.9 	 6
8433.0 	 7
8433.1 	 7
8433.2 	 8
8433.3 	 9
8433.4 	 10
8433.5 	 10
8433.6 	 11
8433.7 	 12
8433.8 	 27
8433.9 	 31
8434.0 	 35
8434.1 	 39
8434.2 	 44
8434.3 	 48
8434.4 	 52
8434.5 	 57
8434.6 	 61
8434.7 	 66
8434.8 	 70
8434.9 	 74
8435.0 	 79
8435.1 	 84
8435.2 	 89
8435.3 	 94
8435.4 	 100
8435.5 	 105
8435.6 	 110
8435.7 	 115
8435.8 	 120
8435.9 	 126
8436.0 	 131
8436.1 	 134
8436.2 	 137
8436.3 	 141
8436.4 	 144
8436.5 	 147
8436.6 	 150
8436.7 	 154
8436.8 	 157
8436.9 	 160
8437.0 	 163
8437.1 	 166
8437.2 	 169
8437.3 	 175
8437.4 	 179
8437.5 	 182
8437.6 	 186
8437.7 	 190
8437.8 	 193
8437.9 	 197
8438.0 	 201
8438.1 	 204
8438.2 	 204
8438.3 	 205
8438.4 	 206
8438.5 	 206
8438.6 	 207
8438.7 	 207
8438.8 	 208
8438.9 	 208
8439.0 	 209
8439.1 	 210
8439.2 	 209
8439.3 	 209
8439.4 	 206
8439.5 	 203
8439.6 	 200
8439.7 	 197
8439.8 	 193
8439.9 	 188
8440.0 	 184
8440.1 	 180
8440.2 	 176
8440.3 	 173
8440.4 	 169
8440.5 	 160
8440.6 	 151
8440.7 	 142
8440.8 	 133
8440.9 	 124
8441.0 	 116
8441.1 	 105
8441.2 	 98
8441.3 	 91
8441.4 	 84
8441.5 	 77
8441.6 	 71
8441.7 	 65
8441.8 	 59
8441.9 	 53
8442.0 	 47
8442.1 	 38
8442.2 	 33
8442.3 	 28
8442.4 	 23
8442.5 	 18
8442.7 	 0
8587.2 	 0
8587.3 	 4
8587.4 	 6
8587.5 	 7
8587.6 	 9
8587.7 	 10
8587.8 	 12
8587.9 	 14
8588.0 	 15
8588.1 	 17
8588.2 	 18
8588.3 	 20
8588.4 	 22
8588.5 	 23
8588.6 	 25
8588.7 	 26
8588.8 	 28
8588.9 	 30
8589.0 	 31
8589.1 	 33
8589.2 	 35
8589.3 	 40
8589.4 	 42
8589.5 	 44
8589.6 	 46
8589.7 	 48
8589.8 	 48
8589.9 	 48
8590.0 	 54
8590.1 	 55
8590.2 	 56
8590.3 	 57
8590.4 	 58
8590.5 	 59
8590.6 	 61
8590.7 	 63
8590.8 	 65
8590.9 	 67
8591.0 	 69
8591.1 	 74
8591.2 	 79
8591.3 	 84
8591.4 	 88
8591.5 	 93
8591.6 	 98
8591.7 	 102
8591.8 	 107
8591.9 	 113
8592.0 	 119
8592.1 	 124
8592.2 	 132
8592.3 	 141
8592.4 	 149
8592.5 	 158
8592.6 	 166
8592.7 	 175
8592.8 	 184
8592.9 	 192
8593.0 	 201
8593.1 	 209
8593.2 	 218
8593.3 	 226
8593.4 	 234
8593.5 	 242
8593.6 	 250
8593.7 	 259
8593.8 	 267
8593.9 	 275
8594.0 	 283
8594.1 	 291
8594.2 	 299
8594.3 	 307
8594.4 	 314
8594.5 	 316
8594.6 	 315
8594.7 	 314
8594.8 	 313
8594.9 	 312
8595.0 	 310
8595.1 	 306
8595.2 	 306
8595.3 	 306
8595.4 	 306
8595.5 	 306
8595.6 	 305
8595.7 	 304
8595.8 	 295
8595.9 	 287
8596.0 	 279
8596.1 	 270
8596.2 	 262
8596.3 	 254
8596.4 	 246
8596.5 	 237
8596.6 	 204
8596.7 	 199
8596.8 	 194
8596.9 	 190
8597.0 	 186
8597.1 	 178
8597.2 	 170
8597.3 	 162
8597.4 	 155
8597.5 	 147
8597.6 	 139
8597.7 	 131
8597.8 	 123
8597.9 	 115
8598.0 	 107
8598.1 	 88
8598.2 	 83
8598.3 	 79
8598.4 	 76
8598.5 	 72
8598.6 	 68
8598.7 	 65
8598.8 	 61
8598.9 	 57
8599.0 	 54
8599.1 	 50
8599.2 	 47
8599.3 	 43
8599.4 	 39
8599.5 	 36
8599.6 	 32
8599.7 	 31
8599.8 	 29
8599.9 	 28
8600.0 	 27
8600.1 	 26
8600.2 	 24
8600.3 	 23
8600.4 	 22
8600.5 	 20
8600.6 	 19
8600.7 	 18
8600.8 	 16
8600.9 	 15
8601.0 	 15
8601.1 	 16
8601.2 	 16
8601.3 	 16
8601.4 	 16
8601.5 	 17
8601.6 	 17
8601.7 	 18
8601.8 	 18
8601.9 	 18
8602.0 	 18
8602.1 	 19
8602.2 	 19
8602.3 	 19
8602.4 	 18
8602.5 	 18
8602.6 	 18
8602.7 	 18
8602.8 	 18
8602.9 	 17
8603.0 	 17
8603.1 	 17
8603.2 	 17
8603.3 	 16
8603.4 	 16
8603.5 	 16
8603.6 	 15
8603.7 	 15
8603.8 	 14
8603.9 	 13
8604.0 	 13
8604.1 	 12
8604.2 	 11
8604.3 	 10
8604.4 	 10
8604.5 	 9
8604.6 	 8
8604.7 	 8
8604.8 	 7
8604.9 	 7
8605.0 	 6
8605.1 	 6
8605.2 	 6
8605.3 	 5
8605.4 	 5
8605.5 	 4
8605.6 	 4
8605.7 	 4
8605.8 	 3
8605.9 	 3
8606.0 	 2
8606.1 	 2
8606.2 	 2
8606.3 	 2
8606.4 	 3
8606.5 	 3
8606.6 	 3
8606.7 	 3
8606.8 	 4
8606.9 	 4
8607.0 	 4
8607.1 	 4
8607.2 	 4
8607.3 	 5
8607.4 	 5
8607.5 	 5
8607.6 	 6
8607.7 	 6
8607.8 	 7
8607.9 	 7
8608.0 	 8
8608.1 	 8
8608.2 	 9
8608.3 	 9
8608.4 	 10
8608.5 	 10
8608.6 	 10
8608.7 	 11
8608.8 	 0
8719.1 	 0
8719.3 	 4
8719.4 	 4
8719.5 	 5
8719.6 	 5
8719.7 	 5
8719.8 	 5
8719.9 	 6
8720.0 	 6
8720.1 	 6
8720.2 	 6
8720.3 	 6
8720.4 	 7
8720.5 	 27
8720.6 	 33
8720.7 	 38
8720.8 	 44
8720.9 	 49
8721.0 	 54
8721.1 	 79
8721.2 	 101
8721.3 	 124
8721.4 	 147
8721.5 	 170
8721.6 	 193
8721.7 	 231
8721.8 	 269
8721.9 	 308
8722.0 	 521
8722.1 	 672
8722.2 	 837
8722.3 	 1002
8722.4 	 1166
8722.5 	 1325
8722.6 	 667
8722.7 	 724
8722.8 	 781
8722.9 	 877
8723.0 	 934
8723.1 	 992
8723.2 	 1053
8723.3 	 1114
8723.4 	 1176
8723.5 	 1254
8723.6 	 1317
8723.7 	 3394
8723.8 	 3565
8723.9 	 3737
8724.0 	 3908
8724.1 	 4085
8724.2 	 4438
8724.3 	 5237
8724.4 	 6036
8724.5 	 6834
8724.6 	 7633
8724.7 	 8431
8724.8 	 9228
8724.9 	 10024
8725.0 	 10820
8725.1 	 11627
8725.2 	 12429
8725.3 	 13238
8725.4 	 14161
8725.5 	 15085
8725.6 	 16008
8725.7 	 16929
8725.8 	 17850
8725.9 	 18770
8726.0 	 19690
8726.1 	 20609
8726.2 	 21523
8726.3 	 22437
8726.4 	 23253
8726.5 	 23411
8726.6 	 23522
8726.7 	 23633
8726.8 	 23744
8726.9 	 23855
8727.0 	 23965
8727.1 	 24068
8727.2 	 24147
8727.3 	 24225
8727.4 	 24301
8727.5 	 24324
8727.6 	 24004
8727.7 	 23668
8727.8 	 23046
8727.9 	 22423
8728.0 	 21801
8728.1 	 21168
8728.2 	 20490
8728.3 	 19812
8728.4 	 19130
8728.5 	 18449
8728.6 	 17776
8728.7 	 17161
8728.8 	 16546
8728.9 	 15926
8729.0 	 15200
8729.1 	 14476
8729.2 	 13755
8729.3 	 13035
8729.4 	 12315
8729.5 	 11595
8729.6 	 10875
8729.7 	 10193
8729.8 	 9773
8729.9 	 9352
8730.0 	 8932
8730.1 	 8521
8730.2 	 8189
8730.3 	 7856
8730.4 	 7523
8730.5 	 7176
8730.6 	 6842
8730.7 	 6508
8730.8 	 6179
8730.9 	 5884
8731.0 	 5590
8731.1 	 5303
8731.2 	 5038
8731.3 	 4778
8731.4 	 4627
8731.5 	 4476
8731.6 	 4324
8731.7 	 4173
8731.8 	 4022
8731.9 	 3874
8732.0 	 3751
8732.1 	 3612
8732.2 	 3484
8732.3 	 3357
8732.4 	 3229
8732.5 	 3102
8732.6 	 2974
8732.7 	 2846
8732.8 	 2697
8732.9 	 2570
8733.0 	 2447
8733.1 	 2350
8733.2 	 2253
8733.3 	 2156
8733.4 	 2058
8733.5 	 1961
8733.6 	 1863
8733.7 	 1766
8733.8 	 1673
8733.9 	 1580
8734.0 	 1486
8734.1 	 1398
8734.2 	 1339
8734.3 	 1280
8734.4 	 1221
8734.5 	 1162
8734.6 	 1104
8734.7 	 1045
8734.8 	 983
8734.9 	 925
8735.0 	 880
8735.1 	 836
8735.2 	 796
8735.3 	 775
8735.4 	 754
8735.5 	 732
8735.6 	 711
8735.7 	 690
8735.8 	 668
8735.9 	 647
8736.0 	 626
8736.1 	 606
8736.2 	 604
8736.3 	 601
8736.4 	 588
8736.5 	 576
8736.6 	 564
8736.7 	 552
8736.8 	 539
8736.9 	 527
8737.0 	 515
8737.1 	 484
8737.2 	 472
8737.3 	 461
8737.4 	 175
8737.5 	 178
8737.6 	 182
8737.7 	 186
8737.8 	 189
8737.9 	 193
8738.0 	 425
8738.1 	 434
8738.2 	 428
8738.3 	 422
8738.4 	 417
8738.5 	 411
8738.6 	 404
8738.7 	 396
8738.8 	 389
8738.9 	 381
8739.0 	 374
8739.1 	 366
8739.2 	 359
8739.3 	 351
8739.4 	 344
8739.5 	 336
8739.6 	 330
8739.7 	 125
8739.8 	 127
8739.9 	 128
8740.0 	 130
8740.1 	 132
8740.2 	 133
8740.3 	 314
8740.4 	 311
8740.5 	 308
8740.6 	 305
8740.7 	 303
8740.8 	 305
8740.9 	 307
8741.0 	 309
8741.1 	 312
8741.2 	 315
8741.3 	 317
8741.4 	 320
8741.5 	 322
8741.6 	 325
8741.7 	 328
8741.8 	 330
8741.9 	 330
8742.0 	 331
8742.1 	 332
8742.2 	 337
8742.3 	 342
8742.4 	 347
8742.5 	 352
8742.6 	 357
8742.7 	 362
8742.8 	 367
8742.9 	 372
8743.0 	 371
8743.1 	 370
8743.2 	 370
8743.3 	 370
8743.4 	 373
8743.5 	 376
8743.6 	 379
8743.7 	 381
8743.8 	 384
8743.9 	 387
8744.0 	 390
8744.1 	 392
8744.2 	 394
8744.3 	 396
8744.4 	 399
8744.5 	 401
8744.6 	 403
8744.7 	 404
8744.8 	 406
8744.9 	 408
8745.0 	 410
8745.1 	 413
8745.2 	 427
8745.3 	 441
8745.4 	 455
8745.5 	 469
8745.6 	 483
8745.7 	 497
8745.8 	 509
8745.9 	 521
8746.0 	 533
8746.1 	 545
8746.2 	 559
8746.3 	 594
8746.4 	 615
8746.5 	 636
8746.6 	 656
8746.7 	 677
8746.8 	 698
8746.9 	 719
8747.0 	 740
8747.1 	 760
8747.2 	 779
8747.3 	 798
8747.4 	 810
8747.5 	 821
8747.6 	 833
8747.7 	 845
8747.8 	 856
8747.9 	 868
8748.0 	 880
8748.1 	 891
8748.2 	 899
8748.3 	 906
8748.4 	 912
8748.5 	 897
8748.6 	 882
8748.7 	 868
8748.8 	 853
8748.9 	 839
8749.0 	 824
8749.1 	 809
8749.2 	 793
8749.3 	 777
8749.4 	 762
8749.5 	 746
8749.6 	 726
8749.7 	 706
8749.8 	 687
8749.9 	 667
8750.0 	 647
8750.1 	 628
8750.2 	 610
8750.3 	 593
8750.4 	 576
8750.5 	 558
8750.6 	 540
8750.7 	 528
8750.8 	 500
8750.9 	 489
8751.0 	 478
8751.1 	 467
8751.2 	 458
8751.3 	 450
8751.4 	 441
8751.5 	 432
8751.6 	 423
8751.7 	 415
8751.8 	 411
8751.9 	 408
8752.0 	 404
8752.1 	 400
8752.2 	 394
8752.3 	 389
8752.4 	 384
8752.5 	 378
8752.6 	 373
8752.7 	 368
8752.8 	 362
8752.9 	 355
8753.0 	 348
8753.1 	 341
8753.2 	 331
8753.3 	 322
8753.4 	 312
8753.5 	 302
8753.6 	 293
8753.7 	 284
8753.8 	 274
8753.9 	 264
8754.0 	 251
8754.1 	 238
8754.2 	 229
8754.3 	 221
8754.4 	 212
8754.5 	 203
8754.6 	 194
8754.7 	 186
8754.8 	 177
8754.9 	 168
8755.0 	 159
8755.1 	 151
8755.2 	 144
8755.3 	 137
8755.4 	 134
8755.5 	 130
8755.6 	 127
8755.7 	 123
8755.8 	 120
8755.9 	 116
8756.0 	 113
8756.1 	 110
8756.2 	 111
8756.3 	 113
8756.4 	 114
8756.5 	 116
8756.6 	 116
8756.7 	 116
8756.8 	 115
8756.9 	 116
8757.0 	 115
8757.1 	 115
8757.2 	 114
8757.3 	 117
8757.4 	 120
8757.5 	 123
8757.6 	 126
8757.7 	 128
8757.8 	 128
8757.9 	 128
8758.0 	 127
8758.1 	 114
8758.2 	 114
8758.3 	 113
8758.4 	 112
8758.5 	 110
8758.6 	 116
8758.7 	 114
8758.8 	 111
8758.9 	 108
8759.0 	 105
8759.1 	 103
8759.2 	 100
8759.3 	 98
8759.4 	 35
8759.5 	 32
8759.6 	 24
8759.7 	 20
8759.8 	 17
8759.9 	 14
8760.0 	 11
8760.1 	 8
8760.2 	 9
8760.3 	 9
8760.4 	 10
8760.5 	 11
8760.6 	 11
8760.7 	 0
8760.9 	 3
8761.0 	 4
8761.1 	 4
8761.2 	 4
8761.3 	 4
8761.4 	 4
8761.5 	 5
8761.6 	 5
8761.7 	 5
8761.8 	 5
8761.9 	 26
8762.0 	 26
8762.1 	 27
8762.2 	 28
8762.3 	 28
8762.4 	 29
8762.5 	 5
8762.6 	 5
8762.7 	 5
8762.8 	 5
8762.9 	 5
8763.0 	 5
8763.1 	 4
8763.2 	 4
8763.3 	 4
8763.4 	 4
8763.5 	 0
8768.0 	 0
8768.1 	 2
8768.2 	 3
8768.3 	 4
8768.4 	 5
8768.5 	 5
8768.6 	 6
8768.7 	 7
8768.8 	 8
8768.9 	 9
8769.0 	 9
8769.1 	 10
8769.2 	 10
8769.3 	 11
8769.4 	 11
8769.5 	 11
8769.6 	 12
8769.7 	 49
8769.8 	 48
8769.9 	 47
8770.0 	 46
8770.1 	 44
8770.2 	 43
8770.3 	 41
8770.4 	 88
8770.5 	 85
8770.6 	 81
8770.7 	 78
8770.8 	 75
8770.9 	 72
8771.0 	 70
8771.1 	 67
8771.2 	 66
8771.3 	 64
8771.4 	 62
8771.5 	 42
8771.6 	 31
8771.7 	 29
8771.8 	 26
8771.9 	 24
8772.0 	 21
8772.1 	 18
8772.2 	 16
8772.3 	 13
8772.4 	 11
8772.5 	 8
8772.6 	 6
8772.7 	 7
8772.8 	 8
8772.9 	 10
8773.0 	 11
8773.1 	 12
8773.9 	 7
8774.0 	 6
8774.1 	 6
8774.2 	 5
8774.3 	 30
8774.4 	 31
8774.5 	 32
8774.6 	 34
8774.7 	 35
8774.8 	 37
8774.9 	 41
8775.0 	 45
8775.1 	 49
8775.2 	 53
8775.3 	 57
8775.4 	 62
8775.5 	 66
8775.6 	 77
8775.7 	 81
8775.8 	 85
8775.9 	 89
8776.0 	 93
8776.1 	 97
8776.2 	 104
8776.3 	 111
8776.4 	 118
8776.5 	 125
8776.6 	 132
8776.7 	 139
8776.8 	 146
8776.9 	 153
8777.0 	 160
8777.1 	 166
8777.2 	 172
8777.3 	 179
8777.4 	 185
8777.5 	 192
8777.6 	 198
8777.7 	 205
8777.8 	 212
8777.9 	 218
8778.0 	 224
8778.1 	 231
8778.2 	 240
8778.3 	 250
8778.4 	 260
8778.5 	 269
8778.6 	 279
8778.7 	 288
8778.8 	 298
8778.9 	 308
8779.0 	 317
8779.1 	 326
8779.2 	 333
8779.3 	 342
8779.4 	 352
8779.5 	 361
8779.6 	 371
8779.7 	 381
8779.8 	 391
8779.9 	 401
8780.0 	 411
8780.1 	 421
8780.2 	 431
8780.3 	 441
8780.4 	 446
8780.5 	 450
8780.6 	 453
8780.7 	 456
8780.8 	 460
8780.9 	 463
8781.0 	 466
8781.1 	 469
8781.2 	 475
8781.3 	 480
8781.4 	 499
8781.5 	 492
8781.6 	 484
8781.7 	 477
8781.8 	 464
8781.9 	 450
8782.0 	 436
8782.1 	 423
8782.2 	 410
8782.3 	 379
8782.4 	 366
8782.5 	 352
8782.6 	 339
8782.7 	 325
8782.8 	 312
8782.9 	 298
8783.0 	 283
8783.1 	 253
8783.2 	 238
8783.3 	 223
8783.4 	 208
8783.5 	 192
8783.6 	 178
8783.7 	 168
8783.8 	 158
8783.9 	 148
8784.0 	 138
8784.1 	 128
8784.2 	 119
8784.3 	 110
8784.4 	 102
8784.5 	 93
8784.6 	 84
8784.7 	 76
8784.8 	 72
8784.9 	 67
8785.0 	 63
8785.1 	 59
8785.2 	 55
8785.3 	 51
8785.4 	 49
8785.5 	 48
8785.6 	 47
8785.7 	 45
8785.8 	 44
8785.9 	 41
8786.0 	 38
8786.1 	 36
8786.2 	 33
8786.3 	 30
8786.4 	 27
8786.5 	 18
8786.6 	 16
8786.7 	 14
8786.8 	 12
8787.0 	 0
10313.8 	 0
10314.0 	 10
10314.1 	 11
10314.2 	 11
10314.3 	 12
10314.4 	 12
10314.5 	 12
10314.6 	 13
10314.7 	 13
10314.8 	 14
10314.9 	 14
10315.0 	 15
10315.1 	 15
10315.2 	 16
10315.3 	 16
10315.4 	 16
10315.5 	 15
10315.6 	 15
10315.7 	 14
10315.8 	 14
10315.9 	 14
10316.0 	 13
10316.1 	 13
10316.2 	 12
10316.3 	 12
10316.4 	 11
10316.5 	 11
10316.6 	 10
10316.7 	 10
10316.8 	 10
10316.9 	 10
10317.0 	 10
10317.1 	 10
10317.2 	 10
10317.3 	 10
10317.4 	 10
10318.9 	 8
10319.0 	 8
10319.1 	 8
10319.2 	 8
10319.3 	 8
10319.4 	 8
10319.5 	 8
10319.6 	 10
10319.7 	 12
10319.8 	 14
10319.9 	 16
10320.0 	 18
10320.1 	 20
10320.2 	 22
10320.3 	 24
10320.4 	 26
10320.5 	 28
10320.6 	 31
10320.7 	 33
10320.8 	 35
10320.9 	 37
10321.0 	 38
10321.1 	 40
10321.2 	 41
10321.3 	 43
10321.4 	 44
10321.5 	 46
10321.6 	 47
10321.7 	 49
10321.8 	 50
10321.9 	 52
10322.0 	 53
10322.1 	 55
10322.2 	 56
10322.3 	 58
10322.4 	 57
10322.5 	 55
10322.6 	 54
10322.7 	 52
10322.8 	 51
10322.9 	 49
10323.0 	 48
10323.1 	 46
10323.2 	 45
10323.3 	 43
10323.4 	 42
10323.5 	 40
10323.6 	 39
10323.7 	 37
10323.8 	 35
10323.9 	 33
10324.0 	 31
10324.1 	 28
10324.2 	 26
10324.3 	 24
10324.4 	 22
10324.5 	 20
10324.6 	 17
10324.7 	 15
10324.8 	 13
10324.9 	 11
10325.0 	 8
10325.1 	 6
10325.2 	 7
10325.3 	 8
10325.4 	 9
10325.5 	 10
10325.6 	 11
10325.7 	 12
10325.8 	 13
10327.3 	 27
10327.4 	 28
10327.5 	 29
10327.6 	 30
10327.7 	 31
10327.8 	 32
10327.9 	 33
10328.0 	 34
10328.1 	 36
10328.2 	 38
10328.3 	 39
10328.4 	 41
10328.5 	 42
10328.6 	 44
10328.7 	 45
10328.8 	 47
10328.9 	 48
10329.0 	 50
10329.1 	 52
10329.2 	 53
10329.3 	 55
10329.4 	 54
10329.5 	 53
10329.6 	 52
10329.7 	 50
10329.8 	 49
10329.9 	 48
10330.0 	 47
10330.1 	 45
10330.2 	 44
10330.3 	 43
10330.4 	 42
10330.5 	 41
10330.6 	 39
10330.7 	 38
10330.8 	 36
10330.9 	 34
10331.0 	 32
10331.1 	 29
10331.2 	 27
10331.3 	 25
10331.4 	 23
10331.5 	 20
10331.6 	 18
10331.7 	 16
10331.8 	 14
10331.9 	 12
10332.0 	 9
10332.1 	 7
10332.2 	 7
10332.3 	 7
10332.4 	 6
10332.5 	 6
10332.6 	 6
10332.7 	 6
10332.8 	 6
10332.9 	 5
10333.0 	 5
10333.1 	 5
10333.2 	 5
10333.3 	 4
10333.4 	 4
10333.5 	 4
10333.6 	 6
10333.7 	 8
10333.8 	 10
10333.9 	 12
10334.0 	 14
10334.1 	 16
10334.2 	 18
10334.3 	 20
10334.4 	 22
10334.5 	 24
10334.6 	 27
10334.7 	 29
10334.8 	 31
10334.9 	 33
10335.0 	 34
10335.1 	 35
10335.2 	 36
10335.3 	 38
10335.4 	 39
10335.5 	 40
10335.6 	 41
10335.7 	 43
10335.8 	 44
10335.9 	 45
10336.0 	 46
10336.1 	 47
10336.2 	 49
10336.4 	 0
10700.0 	 1
##ESI mass spectrum
##Adduct mass = -1.0079
592.1 	 14
592.2 	 21
592.3 	 24
592.4 	 20
592.5 	 15
621.3 	 19
621.4 	 22
621.5 	 21
621.6 	 18
627.6 	 22
627.7 	 35
627.8 	 37
627.9 	 23
645.2 	 18
645.3 	 29
645.4 	 26
645.5 	 19
645.6 	 14
648.3 	 2
649.2 	 3
649.3 	 7
649.4 	 9
649.5 	 7
649.6 	 4
649.7 	 2
650.9 	 3
651.0 	 6
651.1 	 13
651.2 	 23
651.3 	 38
651.4 	 49
651.5 	 55
651.6 	 54
651.7 	 50
651.8 	 40
651.9 	 20
652.0 	 4
656.2 	 6
656.3 	 19
656.4 	 28
656.5 	 27
656.6 	 22
656.7 	 16
656.8 	 10
656.9 	 4
658.8 	 2
659.7 	 3
659.8 	 8
659.9 	 23
660.0 	 51
660.1 	 101
660.2 	 138
660.3 	 134
660.4 	 79
660.5 	 32
660.6 	 15
660.7 	 19
660.8 	 16
660.9 	 7
661.0 	 2
661.1 	 5
661.2 	 11
661.3 	 9
661.4 	 3
661.7 	 7
661.8 	 11
661.9 	 7
662.0 	 2
666.2 	 3
666.3 	 4
666.4 	 2
666.6 	 3
666.7 	 5
666.8 	 5
666.9 	 2
669.7 	 4
669.8 	 7
669.9 	 5
670.2 	 11
670.3 	 23
670.4 	 25
670.5 	 22
670.6 	 16
670.7 	 13
670.8 	 8
670.9 	 3
672.9 	 3
673.0 	 6
673.1 	 4
677.5 	 4
677.6 	 13
677.7 	 21
677.8 	 22
677.9 	 14
678.0 	 8
678.1 	 3
685.3 	 3
685.4 	 4
685.5 	 2
685.8 	 3
685.9 	 2
690.2 	 2
690.3 	 4
690.4 	 2
698.6 	 6
698.7 	 22
698.8 	 37
698.9 	 32
699.0 	 25
699.1 	 24
699.2 	 26
699.3 	 21
699.4 	 10
699.5 	 2
702.1 	 3
702.2 	 13
702.3 	 21
702.4 	 13
702.5 	 3
703.7 	 3
703.8 	 8
703.9 	 10
704.0 	 6
704.1 	 12
704.2 	 28
704.3 	 36
704.4 	 20
704.5 	 3
709.2 	 7
709.3 	 11
709.4 	 7
713.6 	 15
713.7 	 39
713.8 	 53
713.9 	 33
714.0 	 9
714.6 	 4
714.7 	 23
714.8 	 43
714.9 	 41
715.0 	 39
715.1 	 67
715.2 	 106
715.3 	 106
715.4 	 56
715.5 	 12
716.7 	 12
716.8 	 19
716.9 	 12
717.2 	 6
717.3 	 10
717.4 	 6
725.7 	 20
725.8 	 87
725.9 	 319
726.0 	 472
726.1 	 2132
726.2 	 5098
726.3 	 7550
726.4 	 6394
726.5 	 3873
726.6 	 2011
726.7 	 1515
726.8 	 1014
726.9 	 561
727.0 	 267
727.1 	 171
727.2 	 214
727.3 	 206
727.4 	 154
727.5 	 106
727.6 	 104
727.7 	 136
727.8 	 163
727.9 	 168
728.0 	 170
728.1 	 182
728.2 	 201
728.3 	 195
728.4 	 135
728.5 	 74
728.6 	 55
728.7 	 77
728.8 	 81
728.9 	 46
729.0 	 8
729.2 	 24
729.3 	 39
729.4 	 26
729.5 	 4
729.6 	 5
729.7 	 27
729.8 	 37
729.9 	 21
730.2 	 4
730.3 	 11
730.4 	 22
730.5 	 31
730.6 	 70
730.7 	 126
730.8 	 165
730.9 	 125
731.0 	 65
731.1 	 19
731.2 	 7
734.2 	 5
734.3 	 8
734.4 	 5
735.7 	 10
735.8 	 16
735.9 	 10
736.1 	 8
736.2 	 37
736.3 	 58
736.4 	 37
736.5 	 6
736.7 	 33
736.8 	 55
736.9 	 38
737.0 	 7
737.1 	 4
737.2 	 33
737.3 	 50
737.4 	 31
737.5 	 7
738.2 	 17
738.3 	 31
738.4 	 23
738.5 	 6
745.7 	 15
745.8 	 23
745.9 	 15
762.1 	 8
762.2 	 40
762.3 	 83
762.4 	 92
762.5 	 80
762.6 	 61
762.7 	 52
762.8 	 37
762.9 	 18
763.0 	 4
763.7 	 11
763.8 	 18
763.9 	 12
764.6 	 6
764.7 	 26
764.8 	 40
764.9 	 26
765.0 	 6
765.7 	 14
765.8 	 49
765.9 	 87
766.0 	 103
766.1 	 122
766.2 	 145
766.3 	 137
766.4 	 70
766.5 	 13
779.9 	 5
780.0 	 15
780.1 	 44
780.2 	 81
780.3 	 101
780.4 	 68
780.5 	 26
782.1 	 10
782.2 	 40
782.3 	 60
782.4 	 37
782.5 	 8
791.9 	 160
792.1 	 2541
792.2 	 9368
792.3 	 16343
792.4 	 15056
792.5 	 9432
792.6 	 4536
792.7 	 2949
792.8 	 1787
792.9 	 933
793.0 	 421
793.1 	 262
793.2 	 331
793.3 	 286
793.4 	 184
793.5 	 109
793.6 	 128
793.7 	 203
793.8 	 254
793.9 	 242
794.0 	 226
794.1 	 329
794.2 	 516
794.3 	 616
794.4 	 469
794.5 	 276
794.6 	 171
794.7 	 171
794.8 	 152
794.9 	 93
795.0 	 33
795.1 	 19
795.2 	 50
795.3 	 61
795.4 	 35
795.5 	 4
795.6 	 6
795.7 	 35
795.8 	 50
795.9 	 29
796.2 	 29
796.3 	 49
796.4 	 34
796.5 	 6
796.7 	 31
796.8 	 69
796.9 	 99
797.0 	 124
797.1 	 199
797.2 	 290
797.3 	 314
797.4 	 201
797.5 	 89
797.6 	 34
797.7 	 30
797.8 	 11
802.7 	 23
802.8 	 50
802.9 	 52
803.0 	 26
803.1 	 13
803.2 	 24
803.3 	 32
803.4 	 18
803.7 	 23
803.8 	 40
803.9 	 40
804.0 	 39
804.1 	 47
804.2 	 46
804.3 	 30
804.4 	 10
805.2 	 9
805.3 	 22
805.4 	 29
805.5 	 26
805.6 	 36
805.7 	 58
805.8 	 67
805.9 	 36
806.0 	 7
807.1 	 2
807.2 	 9
807.3 	 15
807.4 	 9
807.5 	 2
810.2 	 5
810.3 	 8
810.4 	 5
813.2 	 6
813.3 	 10
813.4 	 6
838.5 	 4
838.6 	 21
838.7 	 39
838.8 	 42
838.9 	 21
839.0 	 3
840.2 	 7
840.3 	 14
840.4 	 13
840.5 	 9
840.6 	 4
840.7 	 2
841.0 	 2
841.1 	 5
841.2 	 5
841.3 	 4
842.2 	 3
842.3 	 7
842.4 	 15
842.5 	 27
842.6 	 45
842.7 	 63
842.8 	 74
842.9 	 52
843.0 	 23
843.1 	 2
858.1 	 3
858.2 	 14
858.3 	 21
858.4 	 13
858.5 	 3
860.3 	 2
864.7 	 3
864.8 	 5
864.9 	 3
871.1 	 15
871.2 	 189
871.3 	 542
871.4 	 941
871.5 	 1217
871.6 	 1545
871.7 	 1807
871.8 	 1767
871.9 	 1146
872.0 	 566
872.1 	 287
872.2 	 274
872.3 	 200
872.4 	 113
872.5 	 51
872.6 	 20
872.7 	 18
872.8 	 14
872.9 	 14
873.0 	 14
873.1 	 10
873.2 	 8
873.3 	 14
873.4 	 26
873.5 	 36
873.6 	 59
873.7 	 91
873.8 	 112
873.9 	 86
874.0 	 51
874.1 	 42
874.2 	 54
874.3 	 51
874.4 	 24
874.5 	 6
874.6 	 7
874.7 	 16
874.8 	 13
874.9 	 5
875.8 	 2
875.9 	 10
876.0 	 13
876.1 	 8
876.6 	 7
876.7 	 40
876.8 	 75
876.9 	 70
877.0 	 39
877.1 	 16
877.2 	 14
877.3 	 15
923.1 	 18
923.2 	 15
968.2 	 38
968.3 	 96
968.4 	 156
968.5 	 200
968.6 	 224
968.7 	 219
968.8 	 186
968.9 	 122
969.0 	 66
969.1 	 33
969.2 	 28
969.3 	 21
970.8 	 14
970.9 	 16
971.0 	 19
971.1 	 23
971.2 	 22
971.3 	 17
974.7 	 15
974.8 	 17
1089.2 	 14
1089.3 	 29
1089.4 	 47
1089.5 	 65
1089.6 	 101
1089.7 	 139
1089.8 	 158
1089.9 	 123
1090.0 	 77
1090.1 	 54
1090.2 	 58
1090.3 	 53
1090.4 	 33
1090.5 	 15
1108.3 	 17
1108.4 	 16
1245.2 	 16
1245.3 	 28
1245.4 	 34
1245.5 	 33
1245.6 	 35
1245.7 	 44
1245.8 	 46
1245.9 	 36
1246.0 	 26
1246.1 	 19
1246.2 	 14
1248.8 	 19
1248.9 	 18
1325.1 	 18
1325.2 	 17
