##Deconvoluted mass spectrum
1000.0 	 1
2701.9 	 0
2702.1 	 6
2702.2 	 8
2702.3 	 11
2702.4 	 13
2702.5 	 15
2702.6 	 16
2702.7 	 17
2702.8 	 19
2702.9 	 18
2703.0 	 17
2703.1 	 16
2703.2 	 15
2703.3 	 13
2703.4 	 11
2703.5 	 8
2703.6 	 6
2703.7 	 0
2737.7 	 0
2737.9 	 9
2738.0 	 15
2738.1 	 21
2738.2 	 26
2738.3 	 30
2738.4 	 35
2738.5 	 33
2738.6 	 29
2738.7 	 25
2738.8 	 19
2738.9 	 13
2739.0 	 7
2739.1 	 0
3609.1 	 0
3609.3 	 14
3609.4 	 12
3609.5 	 10
3609.6 	 8
3609.7 	 6
3609.8 	 6
3609.9 	 5
3610.0 	 4
3610.1 	 7
3610.2 	 12
3610.3 	 17
3610.4 	 22
3610.5 	 27
3610.6 	 38
3610.7 	 45
3610.8 	 52
3610.9 	 55
3611.0 	 56
3611.1 	 56
3611.2 	 56
3611.3 	 51
3611.4 	 44
3611.5 	 37
3611.6 	 30
3611.7 	 26
3611.8 	 23
3611.9 	 3
3612.0 	 2
3612.1 	 2
3612.2 	 2
3612.3 	 12
3612.4 	 10
3612.5 	 15
3612.6 	 23
3612.7 	 30
3612.8 	 38
3612.9 	 45
3613.0 	 53
3613.1 	 60
3613.2 	 68
3613.3 	 70
3613.4 	 70
3613.5 	 70
3613.6 	 70
3613.7 	 67
3613.8 	 63
3613.9 	 59
3614.0 	 55
3614.1 	 52
3614.2 	 48
3614.3 	 50
3614.4 	 47
3614.5 	 46
3614.6 	 47
3614.7 	 48
3614.8 	 49
3614.9 	 49
3615.0 	 48
3615.1 	 48
3615.2 	 46
3615.3 	 43
3615.4 	 38
3615.5 	 34
3615.6 	 29
3615.7 	 24
3615.8 	 19
3615.9 	 14
3616.0 	 10
3616.1 	 5
3616.2 	 4
3616.3 	 4
3616.4 	 4
3616.5 	 3
3616.6 	 0
4103.9 	 0
4109.2 	 20
4109.3 	 22
4109.4 	 22
4109.5 	 23
4109.6 	 24
4109.7 	 24
4109.8 	 25
4109.9 	 25
4110.0 	 26
4110.1 	 26
4110.2 	 25
4110.3 	 24
4110.4 	 24
4110.5 	 23
4110.6 	 22
4110.7 	 21
4110.8 	 20
4110.9 	 19
4111.0 	 18
4111.1 	 17
4111.2 	 16
4111.3 	 15
4111.4 	 14
4111.5 	 14
4111.6 	 13
4111.7 	 13
4111.8 	 12
4111.9 	 12
4112.0 	 12
4112.1 	 12
4112.2 	 13
4112.3 	 13
4112.4 	 13
4112.5 	 13
4112.6 	 13
4112.7 	 13
4112.8 	 12
4112.9 	 12
4113.0 	 12
4113.1 	 12
4113.2 	 11
4113.3 	 10
4113.4 	 10
4113.5 	 9
4113.6 	 8
4113.7 	 8
4113.8 	 7
4113.9 	 6
4114.0 	 6
4114.1 	 5
4114.2 	 4
4114.3 	 4
4114.4 	 4
4114.5 	 3
4114.6 	 3
4114.7 	 2
4114.8 	 2
4114.9 	 0
6083.7 	 0
6083.8 	 4
6083.9 	 6
6084.0 	 9
6084.1 	 11
6084.2 	 14
6084.3 	 16
6084.4 	 19
6084.5 	 21
6084.6 	 24
6084.7 	 26
6084.8 	 29
6084.9 	 31
6085.0 	 34
6085.1 	 37
6085.2 	 38
6085.3 	 36
6085.4 	 35
6085.5 	 34
6085.6 	 33
6085.7 	 32
6085.8 	 31
6085.9 	 29
6086.0 	 26
6086.1 	 23
6086.2 	 20
6086.3 	 17
6086.4 	 14
6086.5 	 12
6086.7 	 0
6302.7 	 0
6302.8 	 4
6302.9 	 5
6303.0 	 5
6303.1 	 6
6303.2 	 6
6303.3 	 7
6303.4 	 8
6303.5 	 8
6303.6 	 9
6303.7 	 9
6303.8 	 9
6303.9 	 9
6304.0 	 9
6304.1 	 9
6304.2 	 9
6304.3 	 9
6304.4 	 9
6304.5 	 9
6304.6 	 9
6304.7 	 9
6304.8 	 8
6304.9 	 10
6305.0 	 10
6305.1 	 11
6305.2 	 11
6305.3 	 11
6305.4 	 12
6305.5 	 12
6305.6 	 12
6305.7 	 13
6305.8 	 13
6305.9 	 13
6306.0 	 14
6306.1 	 14
6306.2 	 14
6306.3 	 14
6306.4 	 15
6306.5 	 15
6306.6 	 15
6306.7 	 14
6306.8 	 14
6306.9 	 13
6307.0 	 13
6307.1 	 13
6307.2 	 12
6307.3 	 12
6307.4 	 11
6307.5 	 11
6307.6 	 11
6307.7 	 4
6307.8 	 4
6307.9 	 4
6308.0 	 3
6308.1 	 3
6308.3 	 0
6309.3 	 3
6309.4 	 2
6309.5 	 2
6309.6 	 2
6309.7 	 2
6309.8 	 2
6309.9 	 3
6310.0 	 3
6310.1 	 3
6310.2 	 3
6310.3 	 4
6310.4 	 4
6310.5 	 4
6310.6 	 4
6310.7 	 3
6310.8 	 3
6310.9 	 3
6311.0 	 3
6311.1 	 2
6311.2 	 2
6311.4 	 0
8178.5 	 0
8178.6 	 2
8178.7 	 2
8178.8 	 3
8178.9 	 3
8179.0 	 4
8179.1 	 4
8179.2 	 5
8179.3 	 5
8179.4 	 6
8179.5 	 6
8179.6 	 7
8179.7 	 7
8179.8 	 7
8179.9 	 7
8180.0 	 8
8180.1 	 8
8180.2 	 8
8180.3 	 8
8180.4 	 8
8180.5 	 8
8180.6 	 9
8180.7 	 9
8180.8 	 9
8180.9 	 9
8181.0 	 8
8181.1 	 8
8181.2 	 8
8181.3 	 7
8181.4 	 7
8181.5 	 6
8181.6 	 6
8181.7 	 6
8181.8 	 5
8182.0 	 0
8193.6 	 0
8193.7 	 8
8193.8 	 8
8193.9 	 8
8194.0 	 8
8194.1 	 8
8194.2 	 8
8194.3 	 8
8194.4 	 9
8194.5 	 9
8194.6 	 9
8194.7 	 9
8194.8 	 9
8194.9 	 9
8195.0 	 9
8195.1 	 8
8195.2 	 8
8195.3 	 8
8195.4 	 7
8195.5 	 7
8195.6 	 7
8195.7 	 6
8195.8 	 6
8195.9 	 6
8196.0 	 5
8196.1 	 5
8196.2 	 5
8196.3 	 5
8196.4 	 5
8196.5 	 5
8196.6 	 5
8200.3 	 2
8200.4 	 2
8200.5 	 2
8200.6 	 2
8200.7 	 2
8200.8 	 2
8200.9 	 2
8201.0 	 2
8201.1 	 2
8201.2 	 2
8201.3 	 3
8201.4 	 3
8202.7 	 5
8202.8 	 5
8202.9 	 5
8203.0 	 6
8203.1 	 6
8203.2 	 6
8203.3 	 6
8203.4 	 7
8203.5 	 8
8203.6 	 9
8203.7 	 10
8203.8 	 11
8203.9 	 12
8204.0 	 13
8204.1 	 14
8204.2 	 15
8204.3 	 16
8204.4 	 17
8204.5 	 18
8204.6 	 19
8204.7 	 20
8204.8 	 20
8204.9 	 21
8205.0 	 30
8205.1 	 32
8205.2 	 34
8205.3 	 35
8205.4 	 37
8205.5 	 39
8205.6 	 41
8205.7 	 43
8205.8 	 43
8205.9 	 44
8206.0 	 44
8206.1 	 44
8206.2 	 45
8206.3 	 45
8206.4 	 45
8206.5 	 45
8206.6 	 46
8206.7 	 46
8206.8 	 46
8206.9 	 46
8207.0 	 46
8207.1 	 46
8207.2 	 46
8207.3 	 45
8207.4 	 44
8207.5 	 43
8207.6 	 42
8207.7 	 41
8207.8 	 40
8207.9 	 39
8208.0 	 38
8208.1 	 37
8208.2 	 37
8208.3 	 37
8208.4 	 36
8208.5 	 36
8208.6 	 56
8208.7 	 50
8208.8 	 51
8208.9 	 51
8209.0 	 52
8209.1 	 52
8209.2 	 51
8209.3 	 50
8209.4 	 49
8209.5 	 47
8209.6 	 45
8209.7 	 43
8209.8 	 42
8209.9 	 40
8210.0 	 38
8210.1 	 37
8210.2 	 37
8210.3 	 38
8210.4 	 39
8210.5 	 40
8210.6 	 40
8210.7 	 41
8210.8 	 42
8210.9 	 43
8211.0 	 44
8211.1 	 45
8211.2 	 48
8211.3 	 52
8211.4 	 55
8211.5 	 58
8211.6 	 62
8211.7 	 66
8211.8 	 71
8211.9 	 75
8212.0 	 79
8212.1 	 84
8212.2 	 84
8212.3 	 87
8212.4 	 91
8212.5 	 95
8212.6 	 99
8212.7 	 103
8212.8 	 106
8212.9 	 110
8213.0 	 114
8213.1 	 117
8213.2 	 115
8213.3 	 113
8213.4 	 111
8213.5 	 109
8213.6 	 107
8213.7 	 105
8213.8 	 103
8213.9 	 101
8214.0 	 99
8214.1 	 96
8214.2 	 93
8214.3 	 90
8214.4 	 89
8214.5 	 86
8214.6 	 82
8214.7 	 83
8214.8 	 80
8214.9 	 75
8215.0 	 72
8215.1 	 69
8215.2 	 68
8215.3 	 67
8215.4 	 67
8215.5 	 66
8215.6 	 66
8215.7 	 65
8215.8 	 65
8215.9 	 65
8216.0 	 64
8216.1 	 64
8216.2 	 65
8216.3 	 66
8216.4 	 68
8216.5 	 69
8216.6 	 70
8216.7 	 72
8216.8 	 73
8216.9 	 74
8217.0 	 75
8217.1 	 76
8217.2 	 76
8217.3 	 76
8217.4 	 75
8217.5 	 75
8217.6 	 75
8217.7 	 57
8217.8 	 56
8217.9 	 56
8218.0 	 55
8218.1 	 53
8218.2 	 51
8218.3 	 48
8218.4 	 45
8218.5 	 42
8218.6 	 39
8218.7 	 37
8218.8 	 34
8218.9 	 31
8219.0 	 28
8219.1 	 26
8219.2 	 24
8219.3 	 21
8219.4 	 19
8219.5 	 17
8219.6 	 15
8219.7 	 13
8219.8 	 11
8219.9 	 9
8220.0 	 7
8220.2 	 0
8650.0 	 0
8650.1 	 2
8650.2 	 4
8650.3 	 6
8650.4 	 8
8650.5 	 10
8650.6 	 12
8650.7 	 14
8650.8 	 16
8650.9 	 18
8651.0 	 20
8651.1 	 22
8651.2 	 24
8651.3 	 27
8651.4 	 30
8651.5 	 33
8651.6 	 36
8651.7 	 39
8651.8 	 42
8651.9 	 45
8652.0 	 48
8652.1 	 50
8652.2 	 52
8652.3 	 54
8652.4 	 55
8652.5 	 57
8652.6 	 58
8652.7 	 62
8652.8 	 64
8652.9 	 66
8653.0 	 69
8653.1 	 70
8653.2 	 68
8653.3 	 66
8653.4 	 64
8653.5 	 62
8653.6 	 60
8653.7 	 58
8653.8 	 56
8653.9 	 53
8654.0 	 51
8654.1 	 49
8654.2 	 46
8654.3 	 44
8654.4 	 41
8654.5 	 43
8654.6 	 40
8654.7 	 38
8654.8 	 36
8654.9 	 33
8655.0 	 30
8655.1 	 27
8655.2 	 27
8655.3 	 26
8655.4 	 26
8655.5 	 25
8655.6 	 18
8655.7 	 17
8655.8 	 17
8655.9 	 16
8656.0 	 15
8656.1 	 15
8656.2 	 14
8656.3 	 13
8656.4 	 12
8656.5 	 11
8656.6 	 15
8656.7 	 14
8656.8 	 13
8656.9 	 12
8657.0 	 11
8657.1 	 8
8657.2 	 8
8657.3 	 9
8657.4 	 9
8657.5 	 4
8657.6 	 5
8657.7 	 5
8657.8 	 5
8657.9 	 6
8658.0 	 6
8658.1 	 6
8658.2 	 6
8658.3 	 6
8658.4 	 5
8658.5 	 5
8658.6 	 5
8658.7 	 5
8658.8 	 5
8658.9 	 4
8659.0 	 4
8659.2 	 0
8667.8 	 0
8837.4 	 0
8837.6 	 14
8837.7 	 14
8837.8 	 13
8837.9 	 12
8838.0 	 12
8838.1 	 11
8838.2 	 10
8838.3 	 10
8838.4 	 9
8838.5 	 8
8838.6 	 7
8838.7 	 7
8838.8 	 6
8838.9 	 6
8839.0 	 6
8839.1 	 6
8839.2 	 6
8839.3 	 6
8839.4 	 6
8841.0 	 0
8841.1 	 2
8841.2 	 3
8841.3 	 3
8841.4 	 4
8841.5 	 4
8841.6 	 5
8841.7 	 16
8841.8 	 18
8841.9 	 20
8842.0 	 22
8842.1 	 30
8842.2 	 32
8842.3 	 34
8842.4 	 36
8842.5 	 38
8842.6 	 40
8842.7 	 42
8842.8 	 45
8842.9 	 47
8843.0 	 49
8843.1 	 51
8843.2 	 53
8843.3 	 56
8843.4 	 58
8843.5 	 60
8843.6 	 62
8843.7 	 64
8843.8 	 66
8843.9 	 68
8844.0 	 71
8844.1 	 73
8844.2 	 77
8844.3 	 82
8844.4 	 118
8844.5 	 124
8844.6 	 131
8844.7 	 136
8844.8 	 143
8844.9 	 148
8845.0 	 154
8845.1 	 161
8845.2 	 186
8845.3 	 202
8845.4 	 218
8845.5 	 235
8845.6 	 251
8845.7 	 268
8845.8 	 284
8845.9 	 301
8846.0 	 317
8846.1 	 334
8846.2 	 352
8846.3 	 372
8846.4 	 394
8846.5 	 416
8846.6 	 438
8846.7 	 432
8846.8 	 455
8846.9 	 477
8847.0 	 499
8847.1 	 521
8847.2 	 541
8847.3 	 561
8847.4 	 580
8847.5 	 593
8847.6 	 607
8847.7 	 620
8847.8 	 627
8847.9 	 634
8848.0 	 642
8848.1 	 648
8848.2 	 647
8848.3 	 646
8848.4 	 644
8848.5 	 663
8848.6 	 656
8848.7 	 648
8848.8 	 641
8848.9 	 634
8849.0 	 625
8849.1 	 616
8849.2 	 607
8849.3 	 597
8849.4 	 588
8849.5 	 578
8849.6 	 569
8849.7 	 561
8849.8 	 532
8849.9 	 523
8850.0 	 515
8850.1 	 507
8850.2 	 503
8850.3 	 500
8850.4 	 496
8850.5 	 492
8850.6 	 488
8850.7 	 483
8850.8 	 481
8850.9 	 479
8851.0 	 477
8851.1 	 476
8851.2 	 476
8851.3 	 476
8851.4 	 478
8851.5 	 479
8851.6 	 480
8851.7 	 482
8851.8 	 482
8851.9 	 480
8852.0 	 478
8852.1 	 475
8852.2 	 469
8852.3 	 463
8852.4 	 457
8852.5 	 451
8852.6 	 442
8852.7 	 433
8852.8 	 424
8852.9 	 415
8853.0 	 400
8853.1 	 385
8853.2 	 369
8853.3 	 353
8853.4 	 337
8853.5 	 321
8853.6 	 305
8853.7 	 289
8853.8 	 271
8853.9 	 253
8854.0 	 236
8854.1 	 219
8854.2 	 204
8854.3 	 190
8854.4 	 175
8854.5 	 160
8854.6 	 146
8854.7 	 132
8854.8 	 118
8854.9 	 104
8855.0 	 92
8855.1 	 79
8855.2 	 75
8855.3 	 71
8855.4 	 68
8855.5 	 64
8855.6 	 60
8855.7 	 36
8855.8 	 34
8855.9 	 31
8856.0 	 28
8856.1 	 25
8856.2 	 25
8856.3 	 24
8856.4 	 24
8856.5 	 24
8856.6 	 23
8856.7 	 23
8856.8 	 32
8856.9 	 31
8857.0 	 30
8857.1 	 28
8857.2 	 26
8857.3 	 25
8857.4 	 25
8857.5 	 26
8857.6 	 26
8857.7 	 26
8857.8 	 27
8857.9 	 27
8858.0 	 27
8858.1 	 28
8858.2 	 28
8858.3 	 29
8858.4 	 29
8858.5 	 30
8858.6 	 29
8858.7 	 28
8858.8 	 28
8858.9 	 27
8859.0 	 20
8859.1 	 19
8859.2 	 19
8859.3 	 18
8859.4 	 17
8859.5 	 10
8859.6 	 9
8859.8 	 0
8860.6 	 6
8860.7 	 6
8860.8 	 6
8860.9 	 9
8861.0 	 9
8861.1 	 9
8861.2 	 16
8861.3 	 18
8861.4 	 20
8861.5 	 18
8861.6 	 27
8861.7 	 29
8861.8 	 34
8861.9 	 38
8862.0 	 43
8862.1 	 47
8862.2 	 52
8862.3 	 57
8862.4 	 62
8862.5 	 66
8862.6 	 71
8862.7 	 78
8862.8 	 84
8862.9 	 90
8863.0 	 96
8863.1 	 101
8863.2 	 105
8863.3 	 109
8863.4 	 114
8863.5 	 118
8863.6 	 110
8863.7 	 114
8863.8 	 119
8863.9 	 122
8864.0 	 124
8864.1 	 126
8864.2 	 136
8864.3 	 137
8864.4 	 138
8864.5 	 139
8864.6 	 139
8864.7 	 140
8864.8 	 140
8864.9 	 141
8865.0 	 142
8865.1 	 139
8865.2 	 137
8865.3 	 134
8865.4 	 132
8865.5 	 122
8865.6 	 120
8865.7 	 118
8865.8 	 114
8865.9 	 111
8866.0 	 108
8866.1 	 105
8866.2 	 102
8866.3 	 100
8866.4 	 98
8866.5 	 96
8866.6 	 94
8866.7 	 91
8866.8 	 89
8866.9 	 87
8867.0 	 85
8867.1 	 83
8867.2 	 82
8867.3 	 83
8867.4 	 84
8867.5 	 77
8867.6 	 78
8867.7 	 79
8867.8 	 80
8867.9 	 81
8868.0 	 82
8868.1 	 92
8868.2 	 92
8868.3 	 93
8868.4 	 95
8868.5 	 96
8868.6 	 98
8868.7 	 99
8868.8 	 101
8868.9 	 103
8869.0 	 105
8869.1 	 107
8869.2 	 109
8869.3 	 112
8869.4 	 113
8869.5 	 112
8869.6 	 104
8869.7 	 102
8869.8 	 101
8869.9 	 105
8870.0 	 103
8870.1 	 101
8870.2 	 98
8870.3 	 96
8870.4 	 94
8870.5 	 91
8870.6 	 89
8870.7 	 87
8870.8 	 84
8870.9 	 82
8871.0 	 80
8871.1 	 78
8871.2 	 76
8871.3 	 74
8871.4 	 71
8871.5 	 69
8871.6 	 74
8871.7 	 73
8871.8 	 72
8871.9 	 70
8872.0 	 69
8872.1 	 68
8872.2 	 66
8872.3 	 65
8872.4 	 64
8872.5 	 63
8872.6 	 62
8872.7 	 62
8872.8 	 62
8872.9 	 63
8873.0 	 63
8873.1 	 50
8873.2 	 49
8873.3 	 43
8873.4 	 42
8873.5 	 42
8873.6 	 50
8873.7 	 49
8873.8 	 47
8873.9 	 45
8874.0 	 43
8874.1 	 34
8874.2 	 32
8874.3 	 30
8874.4 	 29
8874.5 	 27
8874.6 	 30
8874.7 	 28
8874.8 	 27
8874.9 	 25
8875.0 	 24
8875.1 	 22
8875.2 	 21
8875.3 	 20
8875.4 	 19
8875.5 	 19
8875.6 	 19
8875.7 	 18
8875.8 	 18
8875.9 	 12
8876.0 	 9
8876.1 	 10
8876.2 	 10
8876.3 	 10
8876.4 	 11
8876.5 	 11
8876.6 	 11
8876.7 	 11
8876.8 	 12
8876.9 	 12
8877.0 	 12
8877.1 	 12
8877.2 	 12
8877.3 	 12
8877.4 	 12
8877.5 	 13
8877.6 	 13
8877.7 	 13
8877.8 	 12
8877.9 	 12
8878.0 	 11
8878.1 	 11
8878.2 	 10
8878.3 	 10
8878.4 	 9
8878.5 	 8
8878.6 	 8
8878.7 	 7
8878.8 	 7
8879.0 	 0
8879.2 	 0
8926.0 	 0
8926.1 	 5
8926.2 	 7
8926.3 	 8
8926.4 	 10
8926.5 	 11
8926.6 	 13
8926.7 	 14
8926.8 	 16
8926.9 	 17
8927.0 	 19
8927.1 	 20
8927.2 	 21
8927.3 	 22
8927.4 	 24
8927.5 	 25
8927.6 	 26
8927.7 	 27
8927.8 	 28
8927.9 	 29
8928.0 	 30
8928.1 	 31
8928.2 	 30
8928.3 	 29
8928.4 	 28
8928.5 	 26
8928.6 	 25
8928.7 	 24
8928.8 	 32
8928.9 	 32
8929.0 	 31
8929.1 	 31
8929.2 	 30
8929.3 	 29
8929.4 	 28
8929.5 	 27
8929.6 	 26
8929.7 	 26
8929.8 	 25
8929.9 	 24
8930.0 	 22
8930.1 	 15
8930.2 	 15
8930.3 	 14
8930.4 	 14
8930.5 	 14
8930.6 	 13
8930.7 	 13
8930.8 	 13
8930.9 	 12
8931.0 	 12
8931.1 	 11
8931.2 	 10
8931.3 	 9
8931.4 	 9
8931.5 	 8
8931.6 	 7
8931.7 	 6
8931.8 	 5
8931.9 	 4
8932.0 	 4
8932.2 	 0
8971.6 	 0
8971.7 	 2
8971.8 	 2
8971.9 	 3
8972.0 	 3
8972.1 	 4
8972.2 	 4
8972.3 	 5
8972.4 	 5
8972.5 	 6
8972.6 	 6
8972.7 	 7
8972.8 	 7
8972.9 	 7
8973.0 	 8
8973.1 	 8
8973.2 	 8
8973.3 	 8
8973.4 	 9
8973.5 	 9
8973.6 	 9
8973.7 	 10
8973.8 	 10
8973.9 	 10
8974.0 	 11
8974.1 	 16
8974.2 	 18
8974.3 	 20
8974.4 	 21
8974.5 	 23
8974.6 	 16
8974.7 	 17
8974.8 	 18
8974.9 	 19
8975.0 	 20
8975.1 	 24
8975.2 	 28
8975.3 	 32
8975.4 	 36
8975.5 	 39
8975.6 	 17
8975.7 	 18
8975.8 	 55
8975.9 	 62
8976.0 	 70
8976.1 	 82
8976.2 	 107
8976.3 	 133
8976.4 	 158
8976.5 	 184
8976.6 	 209
8976.7 	 316
8976.8 	 334
8976.9 	 353
8977.0 	 372
8977.1 	 399
8977.2 	 469
8977.3 	 631
8977.4 	 764
8977.5 	 897
8977.6 	 1043
8977.7 	 1262
8977.8 	 1446
8977.9 	 1629
8978.0 	 1818
8978.1 	 2020
8978.2 	 2290
8978.3 	 2604
8978.4 	 2972
8978.5 	 3355
8978.6 	 3776
8978.7 	 4197
8978.8 	 4618
8978.9 	 5038
8979.0 	 5459
8979.1 	 5895
8979.2 	 6392
8979.3 	 6888
8979.4 	 7396
8979.5 	 7973
8979.6 	 8550
8979.7 	 9125
8979.8 	 9694
8979.9 	 10263
8980.0 	 10832
8980.1 	 11433
8980.2 	 12154
8980.3 	 12845
8980.4 	 13464
8980.5 	 14080
8980.6 	 14684
8980.7 	 15287
8980.8 	 15891
8980.9 	 16495
8981.0 	 17099
8981.1 	 17687
8981.2 	 18196
8981.3 	 18662
8981.4 	 19127
8981.5 	 19592
8981.6 	 20049
8981.7 	 20448
8981.8 	 20847
8981.9 	 21246
8982.0 	 21645
8982.1 	 21976
8982.2 	 22051
8982.3 	 22126
8982.4 	 22200
8982.5 	 22272
8982.6 	 22339
8982.7 	 22384
8982.8 	 22290
8982.9 	 22195
8983.0 	 22109
8983.1 	 21954
8983.2 	 21446
8983.3 	 20934
8983.4 	 20424
8983.5 	 19914
8983.6 	 19404
8983.7 	 18894
8983.8 	 18361
8983.9 	 17675
8984.0 	 16985
8984.1 	 16310
8984.2 	 15691
8984.3 	 15072
8984.4 	 14453
8984.5 	 13834
8984.6 	 13214
8984.7 	 12595
8984.8 	 11971
8984.9 	 11319
8985.0 	 10542
8985.1 	 9818
8985.2 	 9289
8985.3 	 8761
8985.4 	 8234
8985.5 	 7707
8985.6 	 7179
8985.7 	 6655
8985.8 	 6132
8985.9 	 5609
8986.0 	 5099
8986.1 	 4718
8986.2 	 4477
8986.3 	 4236
8986.4 	 3996
8986.5 	 3755
8986.6 	 3520
8986.7 	 3274
8986.8 	 3054
8986.9 	 2834
8987.0 	 2614
8987.1 	 2403
8987.2 	 2284
8987.3 	 2147
8987.4 	 2029
8987.5 	 1914
8987.6 	 1811
8987.7 	 1707
8987.8 	 1603
8987.9 	 1499
8988.0 	 1396
8988.1 	 1292
8988.2 	 1204
8988.3 	 1196
8988.4 	 1188
8988.5 	 1176
8988.6 	 1164
8988.7 	 1153
8988.8 	 1141
8988.9 	 1130
8989.0 	 1107
8989.1 	 1097
8989.2 	 1092
8989.3 	 1082
8989.4 	 1048
8989.5 	 1013
8989.6 	 979
8989.7 	 944
8989.8 	 910
8989.9 	 876
8990.0 	 841
8990.1 	 810
8990.2 	 748
8990.3 	 731
8990.4 	 713
8990.5 	 689
8990.6 	 664
8990.7 	 639
8990.8 	 614
8990.9 	 589
8991.0 	 565
8991.1 	 542
8991.2 	 527
8991.3 	 512
8991.4 	 497
8991.5 	 482
8991.6 	 477
8991.7 	 465
8991.8 	 452
8991.9 	 439
8992.0 	 427
8992.1 	 269
8992.2 	 252
8992.3 	 236
8992.4 	 219
8992.5 	 202
8992.6 	 187
8992.7 	 182
8992.8 	 177
8992.9 	 172
8993.0 	 167
8993.1 	 310
8993.2 	 300
8993.3 	 289
8993.4 	 278
8993.5 	 268
8993.6 	 257
8993.7 	 127
8993.8 	 120
8993.9 	 113
8994.0 	 106
8994.1 	 99
8994.2 	 93
8994.3 	 234
8994.4 	 233
8994.5 	 231
8994.6 	 230
8994.7 	 226
8994.8 	 224
8994.9 	 219
8995.0 	 214
8995.1 	 211
8995.2 	 213
8995.3 	 216
8995.4 	 218
8995.5 	 221
8995.6 	 224
8995.7 	 226
8995.8 	 229
8995.9 	 233
8996.0 	 231
8996.1 	 230
8996.2 	 235
8996.3 	 240
8996.4 	 244
8996.5 	 264
8996.6 	 270
8996.7 	 276
8996.8 	 280
8996.9 	 285
8997.0 	 291
8997.1 	 296
8997.2 	 299
8997.3 	 302
8997.4 	 306
8997.5 	 309
8997.6 	 312
8997.7 	 311
8997.8 	 314
8997.9 	 317
8998.0 	 320
8998.1 	 324
8998.2 	 328
8998.3 	 332
8998.4 	 337
8998.5 	 341
8998.6 	 345
8998.7 	 349
8998.8 	 352
8998.9 	 356
8999.0 	 360
8999.1 	 364
8999.2 	 367
8999.3 	 377
8999.4 	 386
8999.5 	 396
8999.6 	 405
8999.7 	 415
8999.8 	 424
8999.9 	 434
9000.0 	 443
9000.1 	 455
9000.2 	 477
9000.3 	 499
9000.4 	 519
9000.5 	 539
9000.6 	 559
9000.7 	 578
9000.8 	 598
9000.9 	 638
9001.0 	 659
9001.1 	 683
9001.2 	 712
9001.3 	 741
9001.4 	 769
9001.5 	 786
9001.6 	 804
9001.7 	 821
9001.8 	 838
9001.9 	 856
9002.0 	 872
9002.1 	 887
9002.2 	 897
9002.3 	 907
9002.4 	 918
9002.5 	 927
9002.6 	 932
9002.7 	 936
9002.8 	 958
9002.9 	 957
9003.0 	 957
9003.1 	 953
9003.2 	 933
9003.3 	 913
9003.4 	 893
9003.5 	 872
9003.6 	 852
9003.7 	 835
9003.8 	 818
9003.9 	 801
9004.0 	 783
9004.1 	 766
9004.2 	 727
9004.3 	 708
9004.4 	 689
9004.5 	 671
9004.6 	 653
9004.7 	 637
9004.8 	 627
9004.9 	 616
9005.0 	 606
9005.1 	 597
9005.2 	 594
9005.3 	 591
9005.4 	 588
9005.5 	 586
9005.6 	 585
9005.7 	 565
9005.8 	 563
9005.9 	 557
9006.0 	 551
9006.1 	 547
9006.2 	 549
9006.3 	 550
9006.4 	 552
9006.5 	 551
9006.6 	 551
9006.7 	 550
9006.8 	 550
9006.9 	 548
9007.0 	 539
9007.1 	 528
9007.2 	 514
9007.3 	 500
9007.4 	 483
9007.5 	 467
9007.6 	 451
9007.7 	 435
9007.8 	 418
9007.9 	 402
9008.0 	 386
9008.1 	 370
9008.2 	 349
9008.3 	 330
9008.4 	 310
9008.5 	 291
9008.6 	 271
9008.7 	 252
9008.8 	 232
9008.9 	 212
9009.0 	 193
9009.1 	 159
9009.2 	 150
9009.3 	 142
9009.4 	 132
9009.5 	 124
9009.6 	 115
9009.7 	 106
9009.8 	 97
9009.9 	 88
9010.0 	 79
9010.1 	 71
9010.2 	 70
9010.3 	 72
9010.4 	 74
9010.5 	 76
9010.6 	 63
9010.7 	 65
9010.8 	 67
9010.9 	 75
9011.0 	 78
9011.1 	 80
9011.2 	 82
9011.3 	 84
9011.4 	 85
9011.5 	 85
9011.6 	 106
9011.7 	 107
9011.8 	 107
9011.9 	 108
9012.0 	 109
9012.1 	 110
9012.2 	 112
9012.3 	 114
9012.4 	 44
9012.5 	 46
9012.6 	 48
9012.7 	 50
9012.8 	 53
9012.9 	 55
9013.0 	 113
9013.1 	 69
9013.2 	 66
9013.3 	 64
9013.4 	 61
9013.5 	 58
9013.6 	 99
9013.7 	 96
9013.8 	 94
9013.9 	 92
9014.0 	 90
9014.1 	 87
9014.2 	 83
9014.3 	 80
9014.4 	 76
9014.5 	 73
9014.6 	 70
9014.7 	 70
9014.8 	 71
9014.9 	 71
9015.0 	 72
9015.1 	 73
9015.2 	 75
9015.3 	 77
9015.4 	 79
9015.5 	 82
9015.6 	 84
9015.7 	 87
9015.8 	 92
9015.9 	 97
9016.0 	 102
9016.1 	 107
9016.2 	 114
9016.3 	 121
9016.4 	 128
9016.5 	 135
9016.6 	 142
9016.7 	 148
9016.8 	 155
9016.9 	 159
9017.0 	 167
9017.1 	 171
9017.2 	 174
9017.3 	 178
9017.4 	 181
9017.5 	 182
9017.6 	 185
9017.7 	 189
9017.8 	 192
9017.9 	 194
9018.0 	 190
9018.1 	 186
9018.2 	 179
9018.3 	 171
9018.4 	 164
9018.5 	 156
9018.6 	 149
9018.7 	 141
9018.8 	 134
9018.9 	 126
9019.0 	 119
9019.1 	 110
9019.2 	 102
9019.3 	 94
9019.4 	 85
9019.5 	 77
9019.6 	 68
9019.7 	 60
9019.8 	 51
9019.9 	 42
9020.0 	 34
9020.1 	 27
9020.2 	 27
9020.3 	 27
9020.4 	 27
9020.5 	 27
9020.6 	 21
9020.7 	 3
9020.8 	 3
9020.9 	 3
9021.0 	 3
9021.1 	 3
9021.2 	 3
9021.3 	 3
9021.4 	 3
9021.6 	 9
9021.7 	 9
9021.8 	 29
9021.9 	 30
9022.0 	 30
9022.1 	 31
9022.2 	 31
9022.3 	 32
9022.4 	 34
9022.5 	 36
9022.6 	 25
9022.7 	 26
9022.8 	 30
9022.9 	 31
9023.0 	 32
9023.1 	 34
9023.2 	 35
9023.3 	 36
9023.4 	 37
9023.5 	 40
9023.6 	 39
9023.7 	 38
9023.8 	 37
9023.9 	 36
9024.0 	 35
9024.1 	 34
9024.2 	 34
9024.3 	 34
9024.4 	 33
9024.5 	 33
9024.6 	 32
9024.7 	 31
9024.8 	 30
9024.9 	 29
9025.0 	 29
9025.1 	 28
9025.2 	 27
9025.3 	 15
9025.4 	 13
9025.5 	 12
9025.6 	 11
9025.7 	 11
9025.8 	 11
9025.9 	 23
9026.0 	 24
9026.1 	 24
9026.2 	 19
9026.3 	 19
9026.4 	 19
9026.5 	 19
9026.6 	 18
9026.7 	 18
9026.8 	 17
9026.9 	 16
9027.0 	 16
9027.1 	 16
9027.2 	 15
9027.3 	 16
9027.4 	 16
9027.5 	 16
9027.6 	 15
9027.7 	 15
9027.8 	 14
9027.9 	 15
9028.0 	 15
9028.1 	 16
9028.2 	 16
9028.3 	 17
9028.4 	 17
9028.5 	 17
9028.6 	 18
9028.7 	 18
9028.8 	 19
9028.9 	 3
9029.0 	 3
9029.1 	 3
9029.2 	 3
9029.3 	 3
9029.4 	 3
9031.9 	 2
9032.0 	 2
9032.1 	 2
9032.2 	 2
9032.3 	 2
9032.4 	 2
9032.5 	 2
9032.6 	 2
9032.7 	 2
9032.8 	 2
9032.9 	 3
9033.0 	 3
9033.1 	 3
9033.2 	 3
9033.3 	 3
9033.4 	 4
9033.5 	 4
9033.6 	 4
9033.7 	 4
9033.8 	 4
9033.9 	 4
9034.0 	 4
9034.1 	 3
9034.2 	 3
9034.3 	 3
9034.4 	 3
9034.5 	 3
9034.6 	 2
9034.7 	 2
9034.8 	 2
9035.0 	 0
10649.8 	 0
10650.0 	 7
10650.1 	 8
10650.2 	 8
10650.3 	 8
10650.4 	 8
10650.5 	 9
10650.6 	 9
10650.7 	 9
10650.8 	 10
10650.9 	 10
10651.0 	 10
10651.1 	 10
10651.2 	 11
10651.3 	 11
10651.4 	 11
10651.5 	 10
10651.6 	 10
10651.7 	 10
10651.8 	 10
10651.9 	 9
10652.0 	 9
10652.1 	 9
10652.2 	 8
10652.3 	 8
10652.4 	 8
10652.5 	 8
10652.6 	 7
10652.7 	 7
10652.8 	 0
11000.0 	 1
##ESI mass spectrum
##Adduct mass = -1.0079
668.1 	 22
668.2 	 31
668.3 	 31
668.4 	 17
674.5 	 4
674.6 	 14
674.7 	 19
674.8 	 15
674.9 	 5
676.2 	 2
676.3 	 4
676.4 	 5
676.5 	 2
678.6 	 6
678.7 	 15
678.8 	 15
678.9 	 6
679.2 	 5
679.3 	 13
679.4 	 18
679.5 	 21
679.6 	 25
679.7 	 34
679.8 	 42
679.9 	 35
680.0 	 21
680.1 	 12
680.2 	 12
680.3 	 13
680.4 	 7
680.7 	 7
680.8 	 12
680.9 	 7
681.2 	 9
681.3 	 15
681.4 	 13
681.5 	 6
681.7 	 4
681.8 	 8
681.9 	 9
682.0 	 5
682.4 	 2
682.6 	 6
682.7 	 18
682.8 	 27
682.9 	 19
683.0 	 6
683.6 	 4
683.7 	 10
683.8 	 17
683.9 	 23
684.0 	 26
684.1 	 22
684.2 	 15
684.3 	 12
684.4 	 13
684.5 	 12
684.6 	 8
684.7 	 4
684.8 	 2
685.8 	 4
685.9 	 4
686.0 	 3
686.1 	 5
686.2 	 6
686.3 	 9
686.4 	 13
686.5 	 16
686.6 	 17
686.7 	 18
686.8 	 16
686.9 	 8
689.6 	 5
689.7 	 9
689.8 	 16
689.9 	 18
690.0 	 18
690.1 	 19
690.2 	 25
690.3 	 24
690.4 	 12
690.7 	 5
690.8 	 8
690.9 	 5
691.0 	 2
691.2 	 2
692.6 	 3
692.7 	 7
692.8 	 6
692.9 	 3
693.1 	 3
693.2 	 5
693.3 	 6
693.4 	 3
696.7 	 2
696.8 	 4
696.9 	 5
697.0 	 6
697.1 	 2
699.3 	 4
699.4 	 9
699.5 	 9
699.6 	 6
699.7 	 4
699.8 	 5
699.9 	 3
700.9 	 2
702.1 	 2
706.2 	 3
706.3 	 3
707.6 	 5
707.7 	 7
707.8 	 4
709.2 	 2
709.3 	 2
709.8 	 2
710.3 	 2
712.5 	 4
712.6 	 8
712.7 	 6
716.3 	 5
716.4 	 10
716.5 	 9
716.6 	 7
716.7 	 12
716.8 	 19
716.9 	 15
717.0 	 7
717.1 	 2
718.3 	 2
720.2 	 4
720.3 	 7
720.4 	 5
721.1 	 4
721.2 	 8
721.3 	 7
721.4 	 2
721.9 	 5
722.0 	 10
722.1 	 10
722.2 	 5
722.3 	 3
723.6 	 2
725.4 	 7
725.5 	 11
725.6 	 9
725.7 	 5
725.8 	 4
725.9 	 3
726.5 	 2
726.6 	 2
726.7 	 3
726.8 	 7
726.9 	 8
727.0 	 7
727.1 	 5
727.2 	 3
727.3 	 3
727.7 	 3
727.8 	 4
727.9 	 2
728.3 	 2
732.1 	 2
732.2 	 5
732.3 	 7
732.4 	 4
733.3 	 2
733.8 	 2
735.1 	 2
735.8 	 10
735.9 	 29
736.0 	 38
736.1 	 71
736.2 	 136
736.3 	 200
736.4 	 190
736.5 	 157
736.6 	 144
736.7 	 143
736.8 	 107
736.9 	 48
737.0 	 13
737.1 	 7
737.2 	 14
737.3 	 9
737.4 	 3
737.6 	 2
737.7 	 10
737.8 	 14
737.9 	 8
738.2 	 6
738.3 	 17
738.4 	 22
738.5 	 13
738.6 	 7
738.7 	 11
738.8 	 13
738.9 	 6
739.8 	 2
742.5 	 2
742.6 	 7
742.7 	 9
742.8 	 5
744.9 	 8
745.0 	 20
745.1 	 30
745.2 	 31
745.3 	 27
745.4 	 15
745.5 	 4
745.8 	 2
747.1 	 34
747.2 	 99
747.3 	 157
747.4 	 160
747.5 	 142
747.6 	 159
747.7 	 192
747.8 	 194
747.9 	 123
748.0 	 53
748.1 	 21
748.2 	 28
748.3 	 26
748.4 	 14
748.5 	 2
748.7 	 2
748.8 	 4
748.9 	 2
749.9 	 7
750.0 	 14
750.1 	 15
750.2 	 11
750.3 	 6
750.4 	 2
751.0 	 4
751.1 	 11
751.2 	 14
751.3 	 10
751.4 	 3
751.7 	 2
751.8 	 4
751.9 	 2
752.7 	 2
752.8 	 4
752.9 	 2
755.2 	 2
755.3 	 4
755.4 	 2
755.7 	 2
755.8 	 4
755.9 	 2
759.7 	 7
759.8 	 11
759.9 	 7
761.7 	 8
761.8 	 12
761.9 	 8
774.7 	 6
774.8 	 10
774.9 	 6
775.2 	 2
775.3 	 4
775.4 	 2
785.6 	 2
785.7 	 9
785.8 	 14
785.9 	 9
786.0 	 2
787.1 	 2
787.2 	 7
787.3 	 11
787.4 	 7
787.7 	 2
787.8 	 4
787.9 	 2
803.1 	 13
803.2 	 87
803.3 	 192
803.4 	 229
803.5 	 202
803.6 	 184
803.7 	 197
803.8 	 179
803.9 	 96
804.0 	 25
804.2 	 6
804.3 	 9
804.4 	 7
804.6 	 5
804.7 	 37
804.8 	 82
804.9 	 102
805.0 	 84
805.1 	 66
805.2 	 77
805.3 	 96
805.4 	 71
805.5 	 39
805.6 	 24
805.7 	 24
805.8 	 12
805.9 	 2
807.2 	 6
807.3 	 9
807.4 	 6
810.7 	 9
810.8 	 16
810.9 	 12
811.0 	 3
814.6 	 2
814.7 	 7
814.8 	 10
814.9 	 20
815.1 	 103
815.2 	 871
815.3 	 2675
815.4 	 5232
815.5 	 7640
815.6 	 9335
815.7 	 9256
815.8 	 7274
815.9 	 3687
816.0 	 1268
816.1 	 470
816.2 	 682
816.3 	 549
816.4 	 339
816.5 	 165
816.6 	 119
816.7 	 170
816.8 	 184
816.9 	 145
817.0 	 104
817.1 	 151
817.2 	 275
817.3 	 377
817.4 	 347
817.5 	 270
817.6 	 256
817.7 	 303
817.8 	 296
817.9 	 187
818.0 	 85
818.1 	 56
818.2 	 75
818.3 	 72
818.4 	 44
818.5 	 24
818.6 	 50
818.7 	 107
818.8 	 133
818.9 	 79
819.0 	 16
819.2 	 21
819.3 	 34
819.4 	 22
819.5 	 5
819.7 	 5
819.8 	 16
819.9 	 24
820.0 	 17
820.1 	 35
820.2 	 79
820.3 	 117
820.4 	 97
820.5 	 65
820.6 	 56
820.7 	 63
820.8 	 54
820.9 	 26
821.0 	 5
827.1 	 2
827.2 	 10
827.3 	 16
827.4 	 10
827.5 	 2
828.2 	 2
828.3 	 4
828.4 	 2
864.0 	 2
864.1 	 21
864.2 	 50
864.3 	 66
864.4 	 39
864.5 	 9
864.7 	 3
864.8 	 6
864.9 	 4
865.6 	 5
865.7 	 23
865.8 	 35
865.9 	 23
866.0 	 5
866.7 	 2
866.8 	 4
866.9 	 2
868.1 	 3
868.2 	 20
868.3 	 38
868.4 	 30
868.5 	 10
883.1 	 2
883.2 	 8
883.3 	 13
883.4 	 21
883.5 	 34
883.6 	 92
883.7 	 165
883.8 	 210
883.9 	 166
884.0 	 117
884.1 	 102
884.2 	 109
884.3 	 77
884.4 	 30
884.5 	 2
885.1 	 6
885.2 	 23
885.3 	 39
885.4 	 33
885.5 	 20
885.6 	 9
885.7 	 8
885.8 	 8
885.9 	 5
886.2 	 8
886.3 	 12
886.4 	 7
891.6 	 5
891.7 	 20
891.8 	 31
891.9 	 20
892.0 	 5
896.4 	 4
896.6 	 21
896.7 	 205
896.8 	 818
896.9 	 2291
897.0 	 4541
897.1 	 8301
897.2 	 11272
897.3 	 10974
897.4 	 6234
897.5 	 2185
897.6 	 615
897.7 	 826
897.8 	 579
897.9 	 339
898.0 	 157
898.1 	 101
898.2 	 144
898.3 	 149
898.4 	 92
898.5 	 32
898.6 	 48
898.7 	 131
898.8 	 192
898.9 	 182
899.0 	 153
899.1 	 228
899.2 	 371
899.3 	 456
899.4 	 350
899.5 	 216
899.6 	 158
899.7 	 177
899.8 	 152
899.9 	 76
900.0 	 13
900.2 	 23
900.3 	 44
900.4 	 42
900.5 	 28
900.6 	 31
900.7 	 51
900.8 	 57
900.9 	 32
901.0 	 6
901.2 	 10
901.3 	 15
901.4 	 7
901.5 	 4
901.6 	 23
901.7 	 48
901.8 	 48
901.9 	 21
902.1 	 10
902.2 	 40
902.3 	 70
902.4 	 70
902.5 	 54
902.6 	 41
902.7 	 41
902.8 	 36
902.9 	 18
903.0 	 3
911.6 	 4
911.7 	 22
911.8 	 36
911.9 	 24
912.0 	 6
927.2 	 4
927.3 	 7
927.4 	 5
930.7 	 5
930.8 	 11
930.9 	 12
931.0 	 8
931.1 	 3
981.7 	 32
981.8 	 46
981.9 	 30
982.2 	 19
982.3 	 20
996.3 	 34
996.4 	 97
996.5 	 65
996.6 	 431
996.7 	 1300
996.8 	 2301
996.9 	 2384
997.0 	 1908
997.1 	 1427
997.2 	 1235
997.3 	 965
997.4 	 558
997.5 	 248
997.6 	 117
997.7 	 119
997.8 	 83
997.9 	 41
998.6 	 15
998.7 	 22
998.8 	 27
998.9 	 36
999.0 	 46
999.1 	 74
999.2 	 119
999.3 	 152
999.4 	 129
999.5 	 95
999.6 	 84
999.7 	 89
999.8 	 74
999.9 	 40
1000.0 	 16
1002.8 	 16
1104.8 	 15
1121.2 	 39
1121.3 	 91
1121.4 	 122
1121.5 	 124
1121.6 	 132
1121.7 	 153
1121.8 	 157
1121.9 	 111
1122.0 	 59
1122.1 	 28
1122.2 	 25
1122.3 	 22
1122.4 	 18
1124.1 	 19
1124.2 	 25
1124.3 	 32
1124.4 	 29
1124.5 	 22
1124.6 	 20
1124.7 	 19
1281.6 	 30
1281.7 	 57
1281.8 	 77
1281.9 	 72
1282.0 	 60
1282.1 	 65
1282.2 	 79
1282.3 	 80
1282.4 	 52
1282.5 	 32
1282.6 	 27
1282.7 	 33
1282.8 	 26
1285.1 	 18
1285.2 	 25
1285.3 	 20
