##Deconvoluted mass spectrum
1000.0 	 1
4255.1 	 0
4256.2 	 4
4256.3 	 4
4256.4 	 3
4256.5 	 3
4256.6 	 3
4256.7 	 3
4257.4 	 2
4257.5 	 2
4257.6 	 2
4257.7 	 3
4257.8 	 4
4257.9 	 5
4258.0 	 6
4258.1 	 7
4258.2 	 8
4258.3 	 10
4258.4 	 10
4258.5 	 12
4258.6 	 12
4258.7 	 14
4258.8 	 14
4258.9 	 14
4259.0 	 14
4259.1 	 12
4259.2 	 12
4259.3 	 10
4259.4 	 10
4259.5 	 8
4259.6 	 7
4259.7 	 6
4259.8 	 5
4259.9 	 4
4260.0 	 3
4260.1 	 0
4266.5 	 0
4266.7 	 3
4266.8 	 4
4266.9 	 5
4267.0 	 6
4267.1 	 7
4267.2 	 8
4267.3 	 9
4267.4 	 10
4267.5 	 11
4267.6 	 12
4267.7 	 13
4267.8 	 14
4267.9 	 14
4268.0 	 13
4268.1 	 12
4268.2 	 11
4268.3 	 10
4268.4 	 9
4268.5 	 8
4268.6 	 7
4268.7 	 6
4268.8 	 5
4268.9 	 4
4269.0 	 3
4269.1 	 0
4306.4 	 0
4306.6 	 7
4306.7 	 6
4306.8 	 5
4306.9 	 5
4307.0 	 4
4307.1 	 5
4307.2 	 6
4308.3 	 17
4308.4 	 18
4308.5 	 19
4308.6 	 22
4308.7 	 26
4308.8 	 31
4308.9 	 36
4309.0 	 40
4309.1 	 42
4309.2 	 43
4309.3 	 43
4309.4 	 43
4309.5 	 44
4309.6 	 42
4309.7 	 38
4309.8 	 35
4309.9 	 32
4310.0 	 28
4310.1 	 27
4310.2 	 27
4310.3 	 26
4310.4 	 26
4310.5 	 26
4310.6 	 28
4310.7 	 32
4310.8 	 36
4310.9 	 40
4311.0 	 44
4311.1 	 46
4311.2 	 47
4311.3 	 48
4311.4 	 49
4311.5 	 50
4311.6 	 48
4311.7 	 43
4311.8 	 38
4311.9 	 33
4312.0 	 28
4312.1 	 26
4312.2 	 25
4313.3 	 17
4313.4 	 16
4313.5 	 15
4313.6 	 16
4313.7 	 18
4313.8 	 20
4313.9 	 22
4314.0 	 23
4314.1 	 23
4314.2 	 21
4314.3 	 19
4314.4 	 18
4314.5 	 16
4314.6 	 14
4314.7 	 12
4314.8 	 9
4314.9 	 7
4315.0 	 5
4315.1 	 0
6545.7 	 0
6552.6 	 5
6552.7 	 5
6552.8 	 5
6552.9 	 5
6553.0 	 6
6553.1 	 7
6553.2 	 9
6553.3 	 11
6553.4 	 13
6553.5 	 14
6553.6 	 16
6553.7 	 18
6553.8 	 20
6553.9 	 21
6554.0 	 23
6554.1 	 24
6554.2 	 25
6554.3 	 26
6554.4 	 28
6554.5 	 29
6554.6 	 30
6554.7 	 31
6554.8 	 32
6554.9 	 30
6555.0 	 29
6555.1 	 28
6555.2 	 26
6555.3 	 25
6555.4 	 24
6555.5 	 22
6555.6 	 21
6555.7 	 20
6555.8 	 19
6555.9 	 19
6556.0 	 18
6556.1 	 18
6558.0 	 9
6558.1 	 8
6558.2 	 8
6558.3 	 7
6558.4 	 7
6558.5 	 8
6558.6 	 8
6558.7 	 8
6558.8 	 9
6558.9 	 9
6559.0 	 10
6559.1 	 10
6559.2 	 11
6559.3 	 11
6559.4 	 10
6559.5 	 10
6559.6 	 10
6559.7 	 9
6559.8 	 9
6559.9 	 8
6560.0 	 8
6560.1 	 7
6560.3 	 0
6908.0 	 0
6908.1 	 4
6908.2 	 4
6908.3 	 4
6908.4 	 5
6908.5 	 5
6908.6 	 5
6908.7 	 5
6908.8 	 5
6908.9 	 6
6909.0 	 6
6909.1 	 6
6909.2 	 6
6909.3 	 5
6909.4 	 5
6909.5 	 5
6909.6 	 4
6909.7 	 4
6909.8 	 4
6909.9 	 4
6910.0 	 3
6910.1 	 3
6910.2 	 3
6910.3 	 3
6910.4 	 3
6910.5 	 3
6910.6 	 2
6910.7 	 2
6910.8 	 2
6910.9 	 2
6911.0 	 2
6911.1 	 2
6911.2 	 3
6911.3 	 4
6911.4 	 4
6911.5 	 5
6911.6 	 6
6911.7 	 6
6911.8 	 7
6911.9 	 8
6912.0 	 8
6912.1 	 9
6912.2 	 10
6912.3 	 11
6912.4 	 12
6912.5 	 14
6912.6 	 15
6912.7 	 16
6912.8 	 17
6912.9 	 18
6913.0 	 19
6913.1 	 20
6913.2 	 20
6913.3 	 20
6913.4 	 19
6913.5 	 19
6913.6 	 19
6913.7 	 19
6913.8 	 19
6913.9 	 18
6914.0 	 18
6914.1 	 18
6914.2 	 17
6914.3 	 16
6914.4 	 14
6914.5 	 13
6914.6 	 12
6914.7 	 11
6914.8 	 10
6914.9 	 9
6915.0 	 8
6915.1 	 7
6915.2 	 7
6915.3 	 7
6915.4 	 6
6915.5 	 6
6916.6 	 4
6916.7 	 4
6916.8 	 4
6916.9 	 3
6917.0 	 3
6917.1 	 3
6917.2 	 4
6917.3 	 4
6917.4 	 5
6917.5 	 5
6917.6 	 6
6917.7 	 6
6917.8 	 7
6917.9 	 7
6918.0 	 8
6918.1 	 8
6918.2 	 8
6918.3 	 8
6918.4 	 8
6918.5 	 8
6918.6 	 8
6918.7 	 9
6918.8 	 9
6918.9 	 9
6919.0 	 9
6919.1 	 9
6919.2 	 9
6919.3 	 9
6919.4 	 9
6919.5 	 9
6919.6 	 9
6919.7 	 9
6919.8 	 9
6919.9 	 9
6920.0 	 9
6920.1 	 9
6920.2 	 9
6920.3 	 8
6920.4 	 8
6920.5 	 8
6920.6 	 7
6920.7 	 7
6920.8 	 7
6920.9 	 6
6921.0 	 6
6921.1 	 6
6921.2 	 6
6921.3 	 5
6921.4 	 5
6921.5 	 4
6921.6 	 4
6921.7 	 4
6921.8 	 3
6921.9 	 3
6922.0 	 2
6922.2 	 0
7081.6 	 0
7081.7 	 3
7081.8 	 3
7081.9 	 4
7082.0 	 4
7082.1 	 4
7082.2 	 4
7082.3 	 5
7082.4 	 5
7082.5 	 5
7082.6 	 5
7082.7 	 4
7082.8 	 4
7082.9 	 4
7083.0 	 4
7083.1 	 3
7083.2 	 3
7083.4 	 0
7818.0 	 0
7818.1 	 47
7818.2 	 45
7818.3 	 44
7818.4 	 42
7818.5 	 41
7818.6 	 39
7818.7 	 38
7818.8 	 36
7818.9 	 35
7819.0 	 33
7819.1 	 32
7819.2 	 29
7819.3 	 26
7819.4 	 24
7819.5 	 21
7819.6 	 18
7819.7 	 16
7819.8 	 13
7819.9 	 11
7820.0 	 8
7820.1 	 6
7820.2 	 8
7820.3 	 9
7820.4 	 10
7820.5 	 11
7821.6 	 24
7821.7 	 26
7821.8 	 27
7821.9 	 28
7822.0 	 29
7822.1 	 31
7822.2 	 34
7822.3 	 38
7822.4 	 41
7822.5 	 44
7822.6 	 48
7822.7 	 51
7822.8 	 54
7822.9 	 58
7823.0 	 61
7823.1 	 64
7823.2 	 65
7823.3 	 66
7823.4 	 67
7823.5 	 68
7823.6 	 69
7823.7 	 70
7823.8 	 71
7823.9 	 72
7824.0 	 73
7824.1 	 74
7824.2 	 72
7824.3 	 70
7824.4 	 68
7824.5 	 66
7824.6 	 64
7824.7 	 62
7824.8 	 60
7824.9 	 58
7825.0 	 56
7825.1 	 55
7825.2 	 56
7825.3 	 57
7825.4 	 58
7825.5 	 59
7825.6 	 60
7825.7 	 61
7825.8 	 62
7825.9 	 62
7826.0 	 63
7826.1 	 65
7826.2 	 70
7826.3 	 76
7826.4 	 81
7826.5 	 86
7826.6 	 92
7826.7 	 97
7826.8 	 102
7826.9 	 108
7827.0 	 113
7827.1 	 118
7827.2 	 123
7827.3 	 129
7827.4 	 134
7827.5 	 139
7827.6 	 145
7827.7 	 150
7827.8 	 155
7827.9 	 160
7828.0 	 166
7828.1 	 170
7828.2 	 167
7828.3 	 164
7828.4 	 162
7828.5 	 160
7828.6 	 157
7828.7 	 154
7828.8 	 152
7828.9 	 150
7829.0 	 147
7829.1 	 144
7829.2 	 138
7829.3 	 133
7829.4 	 127
7829.5 	 122
7829.6 	 116
7829.7 	 111
7829.8 	 105
7829.9 	 100
7830.0 	 94
7830.1 	 89
7830.2 	 86
7830.3 	 82
7830.4 	 78
7830.5 	 75
7830.6 	 71
7830.7 	 68
7830.8 	 64
7830.9 	 60
7831.0 	 57
7831.1 	 54
7831.2 	 54
7831.3 	 53
7831.4 	 53
7831.5 	 52
7831.6 	 52
7831.7 	 52
7831.8 	 51
7831.9 	 51
7832.0 	 50
7832.1 	 50
7832.2 	 49
7832.3 	 48
7832.4 	 47
7832.5 	 46
7832.6 	 45
7832.7 	 44
7832.8 	 44
7832.9 	 43
7833.0 	 42
7833.1 	 41
7833.2 	 38
7833.3 	 36
7833.4 	 34
7833.5 	 32
7833.6 	 30
7833.7 	 28
7833.8 	 26
7833.9 	 24
7834.0 	 22
7834.2 	 0
7903.8 	 0
7903.9 	 4
7904.0 	 5
7904.1 	 5
7904.2 	 6
7904.3 	 6
7904.4 	 7
7904.5 	 8
7904.6 	 8
7904.7 	 9
7904.8 	 9
7904.9 	 9
7905.0 	 9
7905.1 	 9
7905.2 	 8
7905.3 	 8
7905.4 	 8
7905.5 	 8
7905.6 	 8
7905.7 	 8
7905.8 	 7
7905.9 	 7
7906.0 	 6
7906.1 	 6
7906.2 	 5
7906.3 	 4
7906.4 	 4
7906.5 	 3
7906.7 	 0
8569.2 	 0
8569.3 	 5
8569.4 	 6
8569.5 	 8
8569.6 	 9
8569.7 	 11
8569.8 	 12
8569.9 	 14
8570.0 	 15
8570.1 	 16
8570.2 	 18
8570.3 	 19
8570.4 	 21
8570.5 	 22
8570.6 	 23
8570.7 	 24
8570.8 	 25
8570.9 	 26
8571.0 	 27
8571.1 	 28
8571.2 	 29
8571.3 	 30
8571.4 	 31
8571.5 	 32
8571.6 	 33
8571.7 	 34
8571.8 	 33
8571.9 	 32
8572.0 	 31
8572.1 	 30
8572.2 	 29
8572.3 	 28
8572.4 	 27
8572.5 	 26
8572.6 	 25
8572.7 	 24
8572.8 	 23
8572.9 	 22
8573.0 	 20
8573.1 	 19
8573.2 	 18
8573.3 	 16
8573.4 	 15
8573.5 	 13
8573.6 	 12
8573.7 	 11
8573.8 	 9
8573.9 	 8
8574.0 	 6
8574.2 	 0
8642.0 	 0
8642.1 	 13
8642.2 	 14
8642.3 	 14
8642.4 	 15
8642.5 	 16
8642.6 	 17
8642.7 	 17
8642.8 	 18
8642.9 	 19
8643.0 	 19
8643.1 	 20
8643.2 	 19
8643.3 	 18
8643.4 	 18
8643.5 	 17
8643.6 	 16
8643.7 	 16
8643.8 	 15
8643.9 	 14
8644.0 	 14
8644.2 	 0
8692.0 	 0
8692.1 	 2
8692.2 	 2
8692.3 	 2
8692.4 	 3
8692.5 	 3
8692.6 	 3
8692.7 	 3
8692.8 	 3
8692.9 	 4
8693.0 	 4
8693.1 	 4
8693.2 	 4
8693.3 	 4
8693.4 	 3
8693.5 	 3
8693.6 	 3
8693.7 	 3
8693.8 	 3
8693.9 	 2
8694.0 	 2
8694.1 	 2
8694.2 	 2
8694.3 	 2
8694.4 	 2
8694.5 	 2
8695.6 	 3
8695.7 	 3
8695.8 	 3
8695.9 	 3
8696.0 	 3
8696.1 	 3
8696.2 	 4
8696.3 	 5
8696.4 	 6
8696.5 	 8
8696.6 	 9
8696.7 	 10
8696.8 	 11
8696.9 	 12
8697.0 	 13
8697.1 	 14
8697.2 	 15
8697.3 	 16
8697.4 	 17
8697.5 	 17
8697.6 	 18
8697.7 	 19
8697.8 	 20
8697.9 	 21
8698.0 	 21
8698.1 	 22
8698.2 	 21
8698.3 	 20
8698.4 	 19
8698.5 	 19
8698.6 	 18
8698.7 	 17
8698.8 	 16
8698.9 	 15
8699.0 	 15
8699.1 	 14
8699.2 	 13
8699.3 	 12
8699.4 	 10
8699.5 	 9
8699.6 	 8
8699.7 	 7
8699.8 	 6
8699.9 	 5
8700.0 	 4
8700.1 	 3
8700.2 	 3
8700.3 	 3
8700.4 	 3
8700.5 	 3
8701.6 	 4
8701.7 	 5
8701.8 	 5
8701.9 	 5
8702.0 	 5
8702.1 	 5
8702.2 	 5
8702.3 	 6
8702.4 	 6
8702.5 	 6
8702.6 	 7
8702.7 	 7
8702.8 	 7
8702.9 	 8
8703.0 	 8
8703.1 	 8
8703.2 	 8
8703.3 	 7
8703.4 	 7
8703.5 	 7
8703.6 	 6
8703.7 	 6
8703.8 	 6
8703.9 	 6
8704.0 	 5
8704.2 	 0
8998.6 	 0
9004.6 	 0
9004.7 	 8
9004.8 	 11
9004.9 	 14
9005.0 	 17
9005.1 	 20
9005.2 	 22
9005.3 	 25
9005.4 	 28
9005.5 	 31
9005.6 	 34
9005.7 	 37
9005.8 	 39
9005.9 	 43
9006.0 	 46
9006.1 	 51
9006.2 	 55
9006.3 	 59
9006.4 	 63
9006.5 	 67
9006.6 	 71
9006.7 	 75
9006.8 	 78
9006.9 	 82
9007.0 	 82
9007.1 	 83
9007.2 	 83
9007.3 	 90
9007.4 	 93
9007.5 	 95
9007.6 	 98
9007.7 	 100
9007.8 	 102
9007.9 	 105
9008.0 	 107
9008.1 	 109
9008.2 	 109
9008.3 	 110
9008.4 	 111
9008.5 	 113
9008.6 	 114
9008.7 	 114
9008.8 	 114
9008.9 	 115
9009.0 	 115
9009.1 	 108
9009.2 	 110
9009.3 	 112
9009.4 	 115
9009.5 	 117
9009.6 	 120
9009.7 	 122
9009.8 	 121
9009.9 	 121
9010.0 	 120
9010.1 	 119
9010.2 	 118
9010.3 	 118
9010.4 	 118
9010.5 	 118
9010.6 	 118
9010.7 	 118
9010.8 	 118
9010.9 	 118
9011.0 	 117
9011.1 	 116
9011.2 	 115
9011.3 	 114
9011.4 	 110
9011.5 	 106
9011.6 	 102
9011.7 	 98
9011.8 	 94
9011.9 	 90
9012.0 	 86
9012.1 	 73
9012.2 	 71
9012.3 	 69
9012.4 	 66
9012.5 	 63
9012.6 	 60
9012.7 	 56
9012.8 	 53
9012.9 	 49
9013.0 	 46
9013.1 	 42
9013.2 	 39
9013.3 	 35
9013.4 	 31
9013.5 	 28
9013.6 	 27
9013.7 	 27
9013.8 	 26
9013.9 	 26
9014.0 	 25
9014.1 	 3
9014.2 	 2
9014.4 	 0
9020.7 	 6
9020.8 	 6
9020.9 	 6
9021.0 	 5
9021.1 	 5
9021.2 	 5
9021.3 	 7
9021.4 	 8
9021.5 	 10
9021.6 	 11
9021.7 	 12
9021.8 	 14
9021.9 	 15
9022.0 	 17
9022.1 	 18
9022.2 	 20
9022.4 	 0
9194.0 	 0
9194.1 	 5
9194.2 	 5
9194.3 	 5
9194.4 	 5
9194.5 	 5
9198.2 	 0
9198.3 	 13
9198.4 	 14
9198.5 	 16
9198.6 	 20
9198.7 	 22
9198.8 	 23
9198.9 	 24
9199.0 	 26
9199.1 	 27
9199.2 	 29
9199.3 	 30
9199.4 	 32
9199.5 	 33
9199.6 	 34
9199.7 	 35
9199.8 	 36
9199.9 	 37
9200.0 	 38
9200.1 	 40
9200.2 	 40
9200.3 	 46
9200.4 	 47
9200.5 	 62
9200.6 	 66
9200.7 	 70
9200.8 	 74
9200.9 	 78
9201.0 	 82
9201.1 	 86
9201.2 	 90
9201.3 	 94
9201.4 	 98
9201.5 	 103
9201.6 	 107
9201.7 	 115
9201.8 	 124
9201.9 	 133
9202.0 	 143
9202.1 	 152
9202.2 	 161
9202.3 	 171
9202.4 	 180
9202.5 	 190
9202.6 	 199
9202.7 	 209
9202.8 	 220
9202.9 	 231
9203.0 	 241
9203.1 	 251
9203.2 	 260
9203.3 	 269
9203.4 	 279
9203.5 	 282
9203.6 	 291
9203.7 	 300
9203.8 	 308
9203.9 	 313
9204.0 	 318
9204.1 	 322
9204.2 	 329
9204.3 	 335
9204.4 	 342
9204.5 	 348
9204.6 	 354
9204.7 	 361
9204.8 	 376
9204.9 	 381
9205.0 	 378
9205.1 	 375
9205.2 	 372
9205.3 	 369
9205.4 	 367
9205.5 	 366
9205.6 	 366
9205.7 	 365
9205.8 	 364
9205.9 	 364
9206.0 	 363
9206.1 	 362
9206.2 	 362
9206.3 	 362
9206.4 	 362
9206.5 	 361
9206.6 	 357
9206.7 	 354
9206.8 	 349
9206.9 	 345
9207.0 	 340
9207.1 	 337
9207.2 	 339
9207.3 	 342
9207.4 	 344
9207.5 	 347
9207.6 	 349
9207.7 	 330
9207.8 	 322
9207.9 	 313
9208.0 	 304
9208.1 	 294
9208.2 	 283
9208.3 	 273
9208.4 	 262
9208.5 	 251
9208.6 	 241
9208.7 	 230
9208.8 	 235
9208.9 	 224
9209.0 	 213
9209.1 	 201
9209.2 	 190
9209.3 	 178
9209.4 	 167
9209.5 	 156
9209.6 	 142
9209.7 	 131
9209.8 	 120
9209.9 	 109
9210.0 	 98
9210.1 	 87
9210.2 	 82
9210.3 	 76
9210.4 	 70
9210.5 	 64
9210.6 	 58
9210.7 	 53
9210.8 	 48
9210.9 	 44
9211.0 	 39
9211.1 	 34
9211.2 	 29
9211.3 	 20
9211.4 	 21
9211.5 	 16
9211.6 	 19
9211.7 	 20
9211.8 	 22
9211.9 	 23
9212.0 	 24
9212.1 	 26
9212.2 	 27
9212.3 	 29
9212.4 	 30
9212.5 	 31
9212.6 	 32
9212.7 	 32
9212.8 	 32
9212.9 	 33
9213.0 	 33
9213.1 	 34
9213.2 	 34
9213.3 	 34
9213.4 	 34
9213.5 	 34
9213.6 	 34
9213.7 	 34
9213.8 	 33
9213.9 	 32
9214.0 	 31
9214.1 	 28
9214.2 	 26
9214.3 	 25
9214.4 	 24
9214.5 	 23
9214.6 	 22
9214.7 	 21
9214.8 	 20
9214.9 	 19
9215.0 	 19
9215.1 	 18
9215.2 	 18
9215.3 	 18
9215.4 	 17
9216.5 	 4
9216.6 	 4
9216.7 	 17
9216.8 	 17
9216.9 	 16
9217.0 	 16
9217.1 	 16
9217.2 	 16
9217.3 	 16
9217.4 	 20
9217.5 	 24
9217.6 	 28
9217.7 	 32
9217.8 	 35
9217.9 	 39
9218.0 	 43
9218.1 	 47
9218.2 	 52
9218.3 	 57
9218.4 	 62
9218.5 	 66
9218.6 	 70
9218.7 	 74
9218.8 	 78
9218.9 	 82
9219.0 	 86
9219.1 	 93
9219.2 	 97
9219.3 	 102
9219.4 	 107
9219.5 	 112
9219.6 	 117
9219.7 	 31
9219.8 	 34
9219.9 	 36
9220.0 	 38
9220.1 	 40
9220.2 	 43
9220.3 	 127
9220.4 	 127
9220.5 	 128
9220.6 	 128
9220.7 	 129
9220.8 	 130
9220.9 	 130
9221.0 	 130
9221.1 	 124
9221.2 	 124
9221.3 	 124
9221.4 	 123
9221.5 	 119
9221.6 	 120
9221.7 	 116
9221.8 	 112
9221.9 	 109
9222.0 	 106
9222.1 	 102
9222.2 	 104
9222.3 	 105
9222.4 	 106
9222.5 	 108
9222.6 	 108
9222.7 	 108
9222.8 	 108
9222.9 	 107
9223.0 	 107
9223.1 	 107
9223.2 	 106
9223.3 	 106
9223.4 	 109
9223.5 	 112
9223.6 	 115
9223.7 	 118
9223.8 	 122
9223.9 	 126
9224.0 	 130
9224.1 	 129
9224.2 	 132
9224.3 	 136
9224.4 	 140
9224.5 	 144
9224.6 	 145
9224.7 	 146
9224.8 	 148
9224.9 	 150
9225.0 	 152
9225.1 	 155
9225.2 	 157
9225.3 	 159
9225.4 	 162
9225.5 	 164
9225.6 	 166
9225.7 	 168
9225.8 	 162
9225.9 	 156
9226.0 	 151
9226.1 	 145
9226.2 	 139
9226.3 	 134
9226.4 	 128
9226.5 	 122
9226.6 	 117
9226.7 	 111
9226.8 	 105
9226.9 	 96
9227.0 	 90
9227.1 	 84
9227.2 	 77
9227.3 	 71
9227.4 	 65
9227.5 	 59
9227.6 	 53
9227.7 	 47
9227.8 	 41
9227.9 	 35
9228.0 	 29
9228.1 	 23
9228.2 	 23
9228.3 	 23
9228.4 	 22
9228.5 	 22
9228.6 	 22
9235.9 	 9
9236.0 	 9
9236.1 	 9
9236.2 	 8
9236.3 	 8
9236.4 	 8
9236.5 	 8
9236.6 	 8
9236.7 	 9
9236.8 	 9
9236.9 	 9
9237.0 	 10
9237.1 	 10
9237.2 	 10
9237.3 	 11
9237.4 	 11
9237.5 	 11
9237.6 	 12
9237.8 	 0
9332.0 	 0
9332.1 	 7
9332.2 	 9
9332.3 	 12
9332.4 	 15
9332.5 	 147
9332.6 	 188
9332.7 	 229
9332.8 	 270
9332.9 	 341
9333.0 	 382
9333.1 	 200
9333.2 	 221
9333.3 	 241
9333.4 	 261
9333.5 	 282
9333.6 	 302
9333.7 	 352
9333.8 	 420
9333.9 	 489
9334.0 	 585
9334.1 	 659
9334.2 	 1253
9334.3 	 1373
9334.4 	 1492
9334.5 	 1611
9334.6 	 1729
9334.7 	 1863
9334.8 	 2104
9334.9 	 2346
9335.0 	 2637
9335.1 	 2928
9335.2 	 3224
9335.3 	 3541
9335.4 	 3838
9335.5 	 4157
9335.6 	 4477
9335.7 	 4797
9335.8 	 5120
9335.9 	 5460
9336.0 	 5801
9336.1 	 6157
9336.2 	 6792
9336.3 	 7428
9336.4 	 8064
9336.5 	 8699
9336.6 	 9335
9336.7 	 9970
9336.8 	 10609
9336.9 	 11227
9337.0 	 11709
9337.1 	 12189
9337.2 	 12662
9337.3 	 13140
9337.4 	 13716
9337.5 	 14293
9337.6 	 14869
9337.7 	 15446
9337.8 	 16022
9337.9 	 16597
9338.0 	 17159
9338.1 	 17583
9338.2 	 17990
9338.3 	 18397
9338.4 	 18804
9338.5 	 19195
9338.6 	 19313
9338.7 	 19430
9338.8 	 19547
9338.9 	 19664
9339.0 	 19781
9339.1 	 19896
9339.2 	 20003
9339.3 	 20109
9339.4 	 20189
9339.5 	 20268
9339.6 	 20346
9339.7 	 20389
9339.8 	 19805
9339.9 	 19221
9340.0 	 18637
9340.1 	 18055
9340.2 	 17464
9340.3 	 16939
9340.4 	 16414
9340.5 	 15888
9340.6 	 15362
9340.7 	 14838
9340.8 	 14314
9340.9 	 13787
9341.0 	 13202
9341.1 	 12619
9341.2 	 12044
9341.3 	 11469
9341.4 	 10894
9341.5 	 10318
9341.6 	 9742
9341.7 	 9150
9341.8 	 8574
9341.9 	 7999
9342.0 	 7434
9342.1 	 6884
9342.2 	 6579
9342.3 	 6274
9342.4 	 5968
9342.5 	 5659
9342.6 	 5350
9342.7 	 5040
9342.8 	 4732
9342.9 	 4422
9343.0 	 4113
9343.1 	 3804
9343.2 	 3495
9343.3 	 3191
9343.4 	 3127
9343.5 	 3066
9343.6 	 3022
9343.7 	 2978
9343.8 	 2934
9343.9 	 2890
9344.0 	 2845
9344.1 	 2801
9344.2 	 2757
9344.3 	 2713
9344.4 	 2669
9344.5 	 2623
9344.6 	 2528
9344.7 	 2454
9344.8 	 2363
9344.9 	 2290
9345.0 	 2217
9345.1 	 2132
9345.2 	 2061
9345.3 	 1990
9345.4 	 1920
9345.5 	 1849
9345.6 	 1778
9345.7 	 1709
9345.8 	 1652
9345.9 	 1601
9346.0 	 1550
9346.1 	 1499
9346.2 	 1448
9346.3 	 1397
9346.4 	 1346
9346.5 	 1295
9346.6 	 1244
9346.7 	 1193
9346.8 	 1142
9346.9 	 1085
9347.0 	 1035
9347.1 	 986
9347.2 	 950
9347.3 	 914
9347.4 	 878
9347.5 	 842
9347.6 	 806
9347.7 	 770
9347.8 	 734
9347.9 	 698
9348.0 	 659
9348.1 	 621
9348.2 	 599
9348.3 	 577
9348.4 	 555
9348.5 	 543
9348.6 	 531
9348.7 	 520
9348.8 	 508
9348.9 	 496
9349.0 	 400
9349.1 	 393
9349.2 	 386
9349.3 	 379
9349.4 	 385
9349.5 	 392
9349.6 	 457
9349.7 	 459
9349.8 	 458
9349.9 	 458
9350.0 	 457
9350.1 	 457
9350.2 	 459
9350.3 	 462
9350.4 	 464
9350.5 	 466
9350.6 	 464
9350.7 	 462
9350.8 	 460
9350.9 	 458
9351.0 	 456
9351.1 	 452
9351.2 	 448
9351.3 	 447
9351.4 	 446
9351.5 	 445
9351.6 	 444
9351.7 	 115
9351.8 	 115
9351.9 	 115
9352.0 	 114
9352.1 	 119
9352.2 	 119
9352.3 	 342
9352.4 	 337
9352.5 	 333
9352.6 	 329
9352.7 	 324
9352.8 	 320
9352.9 	 316
9353.0 	 363
9353.1 	 356
9353.2 	 347
9353.3 	 339
9353.4 	 331
9353.5 	 321
9353.6 	 311
9353.7 	 303
9353.8 	 295
9353.9 	 288
9354.0 	 280
9354.1 	 273
9354.2 	 278
9354.3 	 283
9354.4 	 288
9354.5 	 292
9354.6 	 296
9354.7 	 299
9354.8 	 302
9354.9 	 305
9355.0 	 310
9355.1 	 315
9355.2 	 320
9355.3 	 327
9355.4 	 345
9355.5 	 362
9355.6 	 381
9355.7 	 403
9355.8 	 426
9355.9 	 448
9356.0 	 471
9356.1 	 493
9356.2 	 516
9356.3 	 537
9356.4 	 559
9356.5 	 580
9356.6 	 599
9356.7 	 618
9356.8 	 643
9356.9 	 667
9357.0 	 692
9357.1 	 716
9357.2 	 740
9357.3 	 764
9357.4 	 788
9357.5 	 812
9357.6 	 834
9357.7 	 854
9357.8 	 855
9357.9 	 856
9358.0 	 857
9358.1 	 858
9358.2 	 859
9358.3 	 860
9358.4 	 861
9358.5 	 862
9358.6 	 862
9358.7 	 863
9358.8 	 864
9358.9 	 862
9359.0 	 845
9359.1 	 828
9359.2 	 811
9359.3 	 794
9359.4 	 776
9359.5 	 759
9359.6 	 742
9359.7 	 724
9359.8 	 707
9359.9 	 690
9360.0 	 672
9360.1 	 649
9360.2 	 638
9360.3 	 627
9360.4 	 615
9360.5 	 604
9360.6 	 593
9360.7 	 581
9360.8 	 570
9360.9 	 559
9361.0 	 548
9361.1 	 536
9361.2 	 528
9361.3 	 519
9361.4 	 521
9361.5 	 526
9361.6 	 531
9361.7 	 536
9361.8 	 540
9361.9 	 545
9362.0 	 550
9362.1 	 555
9362.2 	 560
9362.3 	 571
9362.4 	 582
9362.5 	 593
9362.6 	 600
9362.7 	 607
9362.8 	 613
9362.9 	 619
9363.0 	 625
9363.1 	 632
9363.2 	 638
9363.3 	 644
9363.4 	 650
9363.5 	 657
9363.6 	 663
9363.7 	 669
9363.8 	 664
9363.9 	 659
9364.0 	 654
9364.1 	 646
9364.2 	 638
9364.3 	 629
9364.4 	 621
9364.5 	 608
9364.6 	 595
9364.7 	 582
9364.8 	 570
9364.9 	 557
9365.0 	 542
9365.1 	 528
9365.2 	 514
9365.3 	 500
9365.4 	 485
9365.5 	 470
9365.6 	 453
9365.7 	 436
9365.8 	 419
9365.9 	 402
9366.0 	 386
9366.1 	 369
9366.2 	 359
9366.3 	 349
9366.4 	 338
9366.5 	 328
9366.6 	 318
9366.7 	 314
9366.8 	 309
9366.9 	 305
9367.0 	 300
9367.1 	 296
9367.2 	 291
9367.3 	 287
9367.4 	 289
9367.5 	 290
9367.6 	 292
9367.7 	 294
9367.8 	 300
9367.9 	 305
9368.0 	 312
9368.1 	 319
9368.2 	 326
9368.3 	 332
9368.4 	 339
9368.5 	 346
9368.6 	 350
9368.7 	 354
9368.8 	 357
9368.9 	 360
9369.0 	 363
9369.1 	 353
9369.2 	 356
9369.3 	 357
9369.4 	 359
9369.5 	 360
9369.6 	 376
9369.7 	 149
9369.8 	 151
9369.9 	 68
9370.0 	 68
9370.1 	 68
9370.2 	 68
9370.3 	 258
9370.4 	 252
9370.5 	 320
9370.6 	 309
9370.7 	 299
9370.8 	 288
9370.9 	 278
9371.0 	 267
9371.1 	 256
9371.2 	 245
9371.3 	 234
9371.4 	 222
9371.5 	 211
9371.6 	 200
9371.7 	 188
9371.8 	 177
9371.9 	 166
9372.0 	 155
9372.1 	 139
9372.2 	 135
9372.3 	 130
9372.4 	 126
9372.5 	 121
9372.6 	 117
9372.7 	 112
9372.8 	 108
9372.9 	 103
9373.0 	 99
9373.1 	 94
9373.2 	 92
9373.3 	 92
9373.4 	 96
9373.5 	 99
9373.6 	 102
9373.7 	 106
9373.8 	 101
9373.9 	 104
9374.0 	 107
9374.1 	 110
9374.2 	 113
9374.3 	 116
9374.4 	 118
9374.5 	 121
9374.6 	 121
9374.7 	 121
9374.8 	 120
9374.9 	 120
9375.0 	 120
9375.1 	 135
9375.2 	 136
9375.3 	 136
9375.4 	 136
9375.5 	 136
9375.6 	 136
9375.7 	 136
9375.8 	 131
9375.9 	 127
9376.0 	 123
9376.1 	 119
9376.2 	 115
9376.3 	 111
9376.4 	 107
9376.5 	 94
9376.6 	 91
9376.7 	 88
9376.8 	 84
9376.9 	 81
9377.0 	 78
9377.1 	 46
9377.2 	 42
9377.3 	 38
9377.4 	 34
9377.5 	 30
9377.6 	 26
9377.7 	 45
9377.8 	 40
9377.9 	 36
9378.0 	 31
9378.1 	 27
9378.2 	 27
9378.3 	 27
9378.4 	 27
9378.5 	 26
9378.6 	 26
9378.7 	 14
9378.8 	 13
9378.9 	 12
9379.0 	 10
9379.1 	 9
9379.2 	 8
9379.3 	 7
9379.4 	 6
9379.5 	 5
9379.6 	 4
9379.7 	 4
9379.8 	 4
9379.9 	 27
9380.0 	 28
9380.1 	 29
9380.2 	 30
9380.3 	 26
9380.4 	 27
9380.5 	 28
9380.6 	 30
9380.7 	 31
9380.8 	 33
9380.9 	 34
9381.0 	 36
9383.0 	 0
9388.6 	 0
9388.8 	 14
9388.9 	 14
9389.0 	 15
9389.1 	 15
9389.2 	 16
9389.3 	 17
9389.4 	 17
9389.5 	 18
9389.6 	 18
9389.7 	 25
9389.8 	 29
9389.9 	 32
9390.0 	 35
9390.1 	 37
9390.2 	 39
9390.3 	 41
9390.4 	 43
9390.5 	 45
9390.6 	 47
9390.7 	 50
9390.8 	 52
9390.9 	 54
9391.0 	 56
9391.1 	 58
9391.2 	 60
9391.3 	 62
9391.4 	 64
9391.5 	 66
9391.6 	 68
9391.7 	 70
9391.8 	 72
9391.9 	 74
9392.0 	 72
9392.1 	 71
9392.2 	 70
9392.3 	 68
9392.4 	 67
9392.5 	 66
9392.6 	 64
9392.7 	 64
9392.8 	 64
9392.9 	 63
9393.0 	 62
9393.1 	 61
9393.2 	 59
9393.3 	 58
9393.4 	 56
9393.5 	 54
9393.6 	 53
9393.7 	 51
9393.8 	 50
9393.9 	 48
9394.0 	 46
9394.1 	 45
9394.2 	 45
9394.3 	 44
9394.4 	 43
9394.5 	 43
9394.6 	 42
9394.7 	 41
9394.8 	 40
9394.9 	 40
9395.0 	 39
9395.1 	 38
9395.2 	 38
9395.3 	 38
9395.4 	 38
9395.5 	 38
9395.6 	 37
9395.7 	 37
9395.8 	 37
9395.9 	 37
9396.0 	 37
9396.1 	 36
9396.2 	 36
9396.3 	 36
9396.4 	 36
9396.5 	 35
9396.6 	 34
9396.7 	 32
9396.8 	 31
9396.9 	 29
9397.0 	 28
9397.1 	 26
9397.2 	 25
9397.3 	 23
9397.4 	 16
9397.5 	 15
9397.6 	 14
9397.7 	 13
9397.8 	 12
9397.9 	 12
9398.0 	 12
9398.1 	 12
9398.2 	 11
9398.3 	 11
9398.4 	 11
9402.4 	 5
9402.5 	 5
9402.6 	 5
9402.7 	 4
9402.8 	 4
9402.9 	 4
9403.0 	 4
9403.1 	 0
9415.2 	 0
9415.3 	 8
9415.4 	 11
9415.5 	 14
9415.6 	 17
9415.7 	 20
9415.8 	 23
9415.9 	 26
9416.0 	 29
9416.1 	 32
9416.2 	 35
9416.3 	 38
9416.4 	 41
9416.5 	 44
9416.6 	 49
9416.7 	 55
9416.8 	 60
9416.9 	 65
9417.0 	 70
9417.1 	 75
9417.2 	 92
9417.3 	 101
9417.4 	 118
9417.5 	 127
9417.6 	 136
9417.7 	 145
9417.8 	 156
9417.9 	 167
9418.0 	 179
9418.1 	 190
9418.2 	 201
9418.3 	 213
9418.4 	 225
9418.5 	 237
9418.6 	 249
9418.7 	 265
9418.8 	 280
9418.9 	 297
9419.0 	 314
9419.1 	 332
9419.2 	 350
9419.3 	 367
9419.4 	 384
9419.5 	 399
9419.6 	 413
9419.7 	 427
9419.8 	 442
9419.9 	 456
9420.0 	 475
9420.1 	 511
9420.2 	 541
9420.3 	 570
9420.4 	 600
9420.5 	 629
9420.6 	 657
9420.7 	 685
9420.8 	 712
9420.9 	 740
9421.0 	 768
9421.1 	 796
9421.2 	 823
9421.3 	 852
9421.4 	 882
9421.5 	 912
9421.6 	 942
9421.7 	 974
9421.8 	 1005
9421.9 	 1037
9422.0 	 1068
9422.1 	 1085
9422.2 	 1117
9422.3 	 1148
9422.4 	 1180
9422.5 	 1211
9422.6 	 1221
9422.7 	 1231
9422.8 	 1241
9422.9 	 1252
9423.0 	 1262
9423.1 	 1273
9423.2 	 1284
9423.3 	 1294
9423.4 	 1305
9423.5 	 1315
9423.6 	 1326
9423.7 	 1335
9423.8 	 1315
9423.9 	 1288
9424.0 	 1260
9424.1 	 1233
9424.2 	 1205
9424.3 	 1178
9424.4 	 1150
9424.5 	 1122
9424.6 	 1095
9424.7 	 1067
9424.8 	 1040
9424.9 	 1011
9425.0 	 974
9425.1 	 937
9425.2 	 899
9425.3 	 861
9425.4 	 823
9425.5 	 785
9425.6 	 747
9425.7 	 709
9425.8 	 671
9425.9 	 634
9426.0 	 596
9426.1 	 559
9426.2 	 532
9426.3 	 505
9426.4 	 479
9426.5 	 455
9426.6 	 432
9426.7 	 409
9426.8 	 386
9426.9 	 362
9427.0 	 339
9427.1 	 299
9427.2 	 282
9427.3 	 264
9427.4 	 260
9427.5 	 256
9427.6 	 252
9427.7 	 248
9427.8 	 244
9427.9 	 240
9428.0 	 236
9428.1 	 232
9428.2 	 228
9428.3 	 224
9428.4 	 220
9428.5 	 216
9428.6 	 210
9428.7 	 205
9428.8 	 199
9428.9 	 193
9429.0 	 188
9429.1 	 182
9429.2 	 176
9429.3 	 171
9429.4 	 165
9429.5 	 160
9429.6 	 154
9429.7 	 148
9429.8 	 141
9429.9 	 134
9430.0 	 127
9430.1 	 120
9430.2 	 112
9430.3 	 105
9430.4 	 99
9430.5 	 93
9430.6 	 86
9430.7 	 80
9430.8 	 74
9430.9 	 68
9431.0 	 62
9431.1 	 57
9431.2 	 52
9431.3 	 46
9431.4 	 41
9431.5 	 36
9431.6 	 30
9431.7 	 22
9431.8 	 18
9431.9 	 15
9432.0 	 11
9432.1 	 8
9432.2 	 8
9432.3 	 8
9432.4 	 8
9432.5 	 8
9432.6 	 8
9433.9 	 10
9434.0 	 10
9434.1 	 10
9434.2 	 10
9434.3 	 10
9434.4 	 10
9434.5 	 10
9434.6 	 10
9434.7 	 11
9434.8 	 12
9434.9 	 12
9435.0 	 12
9435.1 	 13
9435.2 	 14
9435.3 	 14
9435.4 	 14
9435.5 	 15
9435.6 	 16
9435.8 	 0
9440.2 	 0
9440.3 	 6
9440.4 	 6
9440.5 	 7
9440.6 	 7
9440.7 	 8
9440.8 	 8
9440.9 	 8
9441.0 	 9
9441.1 	 9
9441.2 	 9
9441.3 	 10
9441.4 	 10
9441.5 	 10
9441.6 	 9
9441.7 	 9
9441.8 	 8
9441.9 	 8
9442.0 	 8
9442.1 	 7
9442.2 	 7
9442.3 	 7
9442.4 	 6
9442.5 	 6
9442.6 	 6
9442.7 	 6
9442.8 	 6
9442.9 	 6
9443.0 	 6
9445.2 	 0
9445.3 	 33
9445.4 	 40
9445.5 	 46
9445.6 	 53
9445.7 	 59
9445.8 	 66
9445.9 	 74
9446.0 	 82
9446.1 	 89
9446.2 	 97
9446.3 	 105
9446.4 	 113
9446.5 	 120
9446.6 	 129
9446.7 	 138
9446.8 	 146
9446.9 	 154
9447.0 	 163
9447.1 	 171
9447.2 	 179
9447.3 	 187
9447.4 	 195
9447.5 	 204
9447.6 	 212
9447.7 	 219
9447.8 	 221
9447.9 	 223
9448.0 	 224
9448.1 	 225
9448.2 	 226
9448.3 	 227
9448.4 	 228
9448.5 	 229
9448.6 	 230
9448.7 	 231
9448.8 	 232
9448.9 	 232
9449.0 	 231
9449.1 	 230
9449.2 	 229
9449.3 	 228
9449.4 	 228
9449.5 	 227
9449.6 	 226
9449.7 	 225
9449.8 	 224
9449.9 	 224
9450.0 	 223
9450.1 	 222
9450.2 	 224
9450.3 	 227
9450.4 	 229
9450.5 	 232
9450.6 	 234
9450.7 	 236
9450.8 	 238
9450.9 	 241
9451.0 	 243
9451.1 	 246
9451.2 	 248
9451.3 	 250
9451.4 	 253
9451.5 	 256
9451.6 	 259
9451.7 	 262
9451.8 	 265
9451.9 	 268
9452.0 	 271
9452.1 	 274
9452.2 	 277
9452.3 	 280
9452.4 	 283
9452.5 	 283
9452.6 	 281
9452.7 	 278
9452.8 	 276
9452.9 	 273
9453.0 	 271
9453.1 	 268
9453.2 	 266
9453.3 	 264
9453.4 	 261
9453.5 	 259
9453.6 	 256
9453.7 	 254
9453.8 	 246
9453.9 	 239
9454.0 	 231
9454.1 	 224
9454.2 	 216
9454.3 	 208
9454.4 	 201
9454.5 	 193
9454.6 	 186
9454.7 	 181
9454.8 	 176
9454.9 	 171
9455.0 	 166
9455.1 	 162
9455.2 	 149
9455.3 	 144
9455.4 	 138
9455.5 	 133
9455.6 	 127
9455.7 	 122
9455.8 	 116
9455.9 	 111
9456.0 	 105
9456.1 	 100
9456.2 	 98
9456.3 	 109
9456.4 	 108
9456.5 	 107
9456.6 	 105
9456.7 	 104
9456.8 	 103
9456.9 	 102
9457.0 	 101
9457.1 	 101
9457.2 	 100
9457.3 	 100
9457.4 	 103
9457.5 	 106
9457.6 	 109
9457.7 	 112
9457.8 	 115
9457.9 	 118
9458.0 	 119
9458.1 	 120
9458.2 	 121
9458.3 	 123
9458.4 	 124
9458.5 	 125
9458.6 	 125
9458.7 	 125
9458.8 	 125
9458.9 	 124
9459.0 	 124
9459.1 	 122
9459.2 	 121
9459.3 	 120
9459.4 	 118
9459.5 	 117
9459.6 	 115
9459.7 	 114
9459.8 	 108
9459.9 	 102
9460.0 	 97
9460.1 	 92
9460.2 	 89
9460.3 	 86
9460.4 	 82
9460.5 	 79
9460.6 	 76
9460.7 	 63
9460.8 	 60
9460.9 	 56
9461.0 	 54
9461.1 	 53
9461.2 	 52
9461.3 	 50
9461.4 	 49
9461.8 	 15
9461.9 	 16
9462.0 	 16
9462.1 	 17
9462.2 	 18
9462.4 	 0
9462.7 	 30
9462.8 	 28
9462.9 	 52
9463.0 	 52
9463.1 	 67
9463.2 	 67
9463.3 	 67
9463.4 	 75
9463.5 	 82
9463.6 	 89
9463.7 	 96
9463.8 	 103
9463.9 	 110
9464.0 	 116
9464.1 	 123
9464.2 	 130
9464.3 	 137
9464.4 	 144
9464.5 	 44
9464.6 	 29
9464.7 	 28
9464.8 	 28
9464.9 	 28
9465.0 	 27
9465.1 	 171
9465.2 	 176
9465.3 	 182
9465.4 	 188
9465.5 	 193
9465.6 	 199
9465.7 	 206
9465.8 	 205
9465.9 	 204
9466.0 	 204
9466.1 	 203
9466.2 	 202
9466.3 	 201
9466.4 	 200
9466.5 	 199
9466.6 	 213
9466.7 	 212
9466.8 	 211
9466.9 	 210
9467.0 	 207
9467.1 	 203
9467.2 	 200
9467.3 	 197
9467.4 	 194
9467.5 	 191
9467.6 	 188
9467.7 	 185
9467.8 	 181
9467.9 	 177
9468.0 	 172
9468.1 	 152
9468.2 	 149
9468.3 	 147
9468.4 	 145
9468.5 	 143
9468.6 	 140
9468.7 	 138
9468.8 	 136
9468.9 	 134
9469.0 	 130
9469.1 	 126
9469.2 	 122
9469.3 	 118
9469.4 	 117
9469.5 	 116
9469.6 	 116
9469.7 	 115
9469.8 	 114
9469.9 	 113
9470.0 	 112
9470.1 	 113
9470.2 	 114
9470.3 	 115
9470.4 	 116
9470.5 	 117
9470.6 	 100
9470.7 	 100
9470.8 	 100
9470.9 	 100
9471.0 	 100
9472.8 	 6
9472.9 	 6
9473.0 	 5
9473.1 	 5
9473.2 	 4
9473.3 	 4
9473.4 	 4
9473.5 	 5
9473.6 	 5
9473.7 	 5
9473.8 	 5
9477.8 	 0
9478.9 	 0
10239.9 	 0
10240.0 	 2
10240.1 	 2
10240.2 	 2
10240.3 	 2
10240.4 	 2
10240.5 	 2
10240.6 	 2
10240.7 	 2
10240.8 	 2
10240.9 	 2
10241.0 	 2
10241.2 	 0
10260.9 	 0
10261.1 	 97
10261.2 	 94
10261.3 	 92
10261.4 	 89
10261.5 	 86
10261.6 	 83
10261.7 	 80
10261.8 	 77
10261.9 	 74
10262.0 	 72
10262.1 	 69
10262.2 	 66
10262.3 	 63
10262.4 	 60
10262.5 	 58
10262.6 	 55
10262.7 	 53
10262.8 	 50
10262.9 	 47
10263.0 	 45
10263.1 	 42
10263.2 	 40
10263.3 	 37
10263.4 	 34
10263.5 	 32
10263.6 	 29
10263.7 	 28
10263.8 	 28
10263.9 	 27
10264.0 	 26
10264.1 	 25
10264.2 	 24
10264.3 	 24
10264.4 	 23
10264.5 	 22
10264.6 	 21
10264.7 	 21
10264.8 	 20
10264.9 	 19
10265.0 	 20
10265.1 	 22
10265.2 	 23
10265.3 	 24
10265.4 	 26
10265.5 	 27
10265.6 	 28
10265.7 	 29
10265.8 	 31
10265.9 	 32
10266.0 	 33
10266.1 	 35
10266.2 	 36
10266.3 	 37
10266.4 	 38
10266.5 	 40
10266.6 	 41
10266.7 	 42
10266.8 	 43
10266.9 	 45
10267.0 	 46
10267.1 	 47
10267.2 	 48
10267.3 	 50
10267.4 	 51
10267.5 	 52
10267.6 	 52
10267.7 	 53
10267.8 	 54
10267.9 	 54
10268.0 	 55
10268.1 	 55
10268.2 	 56
10268.3 	 56
10268.4 	 57
10268.5 	 57
10268.6 	 58
10268.7 	 58
10268.8 	 59
10268.9 	 58
10269.0 	 56
10269.1 	 55
10269.2 	 54
10269.3 	 52
10269.4 	 51
10269.5 	 50
10269.6 	 49
10269.7 	 47
10269.8 	 46
10269.9 	 45
10270.0 	 43
10270.1 	 42
10270.2 	 44
10270.3 	 45
10270.4 	 47
10270.5 	 48
10270.6 	 50
10270.7 	 52
10270.8 	 53
10270.9 	 55
10271.0 	 56
10271.1 	 58
10271.2 	 60
10271.3 	 61
10271.4 	 63
10271.5 	 68
10271.6 	 74
10271.7 	 79
10271.8 	 85
10271.9 	 90
10272.0 	 96
10272.1 	 101
10272.2 	 106
10272.3 	 112
10272.4 	 118
10272.5 	 123
10272.6 	 128
10272.7 	 134
10272.8 	 139
10272.9 	 144
10273.0 	 149
10273.1 	 154
10273.2 	 159
10273.3 	 164
10273.4 	 169
10273.5 	 174
10273.6 	 180
10273.7 	 185
10273.8 	 190
10273.9 	 195
10274.0 	 200
10274.1 	 197
10274.2 	 194
10274.3 	 190
10274.4 	 187
10274.5 	 184
10274.6 	 180
10274.7 	 177
10274.8 	 174
10274.9 	 170
10275.0 	 167
10275.1 	 164
10275.2 	 160
10275.3 	 157
10275.4 	 152
10275.5 	 146
10275.6 	 140
10275.7 	 134
10275.8 	 129
10275.9 	 123
10276.0 	 117
10276.1 	 112
10276.2 	 106
10276.3 	 100
10276.4 	 94
10276.5 	 89
10276.6 	 83
10276.7 	 82
10276.8 	 81
10276.9 	 80
10277.0 	 78
10277.1 	 77
10277.2 	 76
10277.3 	 75
10277.4 	 74
10277.5 	 73
10277.6 	 72
10277.7 	 70
10277.8 	 69
10277.9 	 68
10278.0 	 71
10278.1 	 74
10278.2 	 78
10278.3 	 81
10278.4 	 84
10278.5 	 88
10278.6 	 91
10278.7 	 94
10278.8 	 98
10278.9 	 101
10279.0 	 104
10279.1 	 108
10279.2 	 111
10279.3 	 112
10279.4 	 113
10279.5 	 114
10279.6 	 115
10279.7 	 116
10279.8 	 117
10279.9 	 118
10280.0 	 120
10280.1 	 121
10280.2 	 122
10280.3 	 123
10280.4 	 124
10280.5 	 125
10280.6 	 121
10280.7 	 117
10280.8 	 113
10280.9 	 109
10281.0 	 106
10281.1 	 102
10281.2 	 98
10281.3 	 94
10281.4 	 90
10281.5 	 86
10281.6 	 82
10281.7 	 78
10281.8 	 74
10281.9 	 70
10282.0 	 66
10282.1 	 62
10282.2 	 58
10282.3 	 54
10282.4 	 50
10282.5 	 46
10282.6 	 42
10282.7 	 37
10282.8 	 33
10282.9 	 29
10283.0 	 25
10283.1 	 21
10283.2 	 0
10298.6 	 0
10298.8 	 16
10298.9 	 16
10299.0 	 17
10299.1 	 18
10299.2 	 18
10299.3 	 19
10299.4 	 20
10299.5 	 20
10299.6 	 21
10299.7 	 22
10299.8 	 23
10299.9 	 23
10300.0 	 33
10300.1 	 33
10300.2 	 33
10300.3 	 32
10300.4 	 32
10300.5 	 32
10300.6 	 31
10300.7 	 31
10300.8 	 31
10300.9 	 30
10301.0 	 30
10301.1 	 30
10301.2 	 29
10301.3 	 14
10301.4 	 14
10301.5 	 13
10301.6 	 13
10301.7 	 13
10301.8 	 12
10301.9 	 12
10302.0 	 12
10302.1 	 11
10302.2 	 11
10302.3 	 10
10302.4 	 10
10302.5 	 10
10302.6 	 9
10302.7 	 9
10302.8 	 0
10899.0 	 0
10899.2 	 10
10899.3 	 13
10899.4 	 16
10899.5 	 19
10899.6 	 22
10899.7 	 24
10899.8 	 27
10899.9 	 30
10900.0 	 33
10900.1 	 36
10900.2 	 38
10900.3 	 41
10900.4 	 44
10900.5 	 47
10900.6 	 50
10900.7 	 53
10900.8 	 57
10900.9 	 61
10901.0 	 64
10901.1 	 68
10901.2 	 72
10901.3 	 76
10901.4 	 80
10901.5 	 84
10901.6 	 87
10901.7 	 91
10901.8 	 95
10901.9 	 99
10902.0 	 102
10902.1 	 106
10902.2 	 107
10902.3 	 108
10902.4 	 108
10902.5 	 109
10902.6 	 110
10902.7 	 110
10902.8 	 111
10902.9 	 111
10903.0 	 112
10903.1 	 112
10903.2 	 113
10903.3 	 113
10903.4 	 114
10903.5 	 114
10903.6 	 115
10903.7 	 113
10903.8 	 111
10903.9 	 109
10904.0 	 106
10904.1 	 104
10904.2 	 102
10904.3 	 100
10904.4 	 97
10904.5 	 95
10904.6 	 93
10904.7 	 90
10904.8 	 88
10904.9 	 86
10905.0 	 84
10905.1 	 81
10905.2 	 80
10905.3 	 78
10905.4 	 77
10905.5 	 75
10905.6 	 74
10905.7 	 72
10905.8 	 71
10905.9 	 70
10906.0 	 68
10906.1 	 67
10906.2 	 65
10906.3 	 64
10906.4 	 62
10906.5 	 61
10906.6 	 59
10906.7 	 60
10906.8 	 61
10906.9 	 62
10907.0 	 63
10907.1 	 64
10907.2 	 64
10907.3 	 65
10907.4 	 66
10907.5 	 67
10907.6 	 68
10907.7 	 69
10907.8 	 70
10907.9 	 71
10908.0 	 72
10908.1 	 73
10908.2 	 73
10908.3 	 74
10908.4 	 74
10908.5 	 74
10908.6 	 75
10908.7 	 75
10908.8 	 76
10908.9 	 76
10909.0 	 76
10909.1 	 77
10909.2 	 77
10909.3 	 78
10909.4 	 78
10909.5 	 78
10909.6 	 79
10909.7 	 77
10909.8 	 75
10909.9 	 73
10910.0 	 71
10910.1 	 69
10910.2 	 67
10910.3 	 65
10910.4 	 63
10910.5 	 61
10910.6 	 59
10910.7 	 57
10910.8 	 55
10910.9 	 52
10911.0 	 50
10911.1 	 48
10911.2 	 46
10911.3 	 44
10911.4 	 42
10911.5 	 40
10911.6 	 38
10911.7 	 36
10911.8 	 34
10911.9 	 32
10912.0 	 30
10912.1 	 28
10912.2 	 26
10912.3 	 24
10912.4 	 22
10912.5 	 19
10912.6 	 17
10912.7 	 17
10912.8 	 16
10912.9 	 16
10913.0 	 16
10913.1 	 15
10913.2 	 15
10913.3 	 14
10914.9 	 8
10915.0 	 8
10915.1 	 7
10915.2 	 7
10915.3 	 6
10915.4 	 6
10915.5 	 6
10915.6 	 5
10915.7 	 0
11030.4 	 0
11030.5 	 5
11030.6 	 5
11030.7 	 6
11030.8 	 6
11030.9 	 6
11031.0 	 6
11031.1 	 6
11031.2 	 7
11031.3 	 7
11031.4 	 7
11031.5 	 8
11031.6 	 8
11031.7 	 8
11031.8 	 8
11031.9 	 8
11032.0 	 7
11032.1 	 7
11032.2 	 7
11043.8 	 0
11300.0 	 1
##ESI mass spectrum
##Adduct mass = -1.0079
660.4 	 15
672.0 	 17
672.1 	 18
672.2 	 16
672.3 	 15
681.7 	 2
681.8 	 4
681.9 	 3
689.8 	 4
689.9 	 6
690.0 	 3
690.1 	 2
690.2 	 9
690.3 	 20
690.4 	 18
690.5 	 7
690.7 	 3
690.8 	 8
690.9 	 9
691.0 	 9
691.1 	 6
691.2 	 2
692.0 	 2
692.1 	 6
692.2 	 9
692.3 	 7
692.4 	 2
693.6 	 3
693.7 	 3
693.8 	 2
693.9 	 3
694.0 	 5
694.1 	 6
694.2 	 3
694.8 	 2
699.7 	 2
699.8 	 4
699.9 	 2
701.7 	 2
701.8 	 3
701.9 	 5
702.0 	 8
702.1 	 10
702.2 	 8
702.3 	 4
702.4 	 2
706.7 	 5
706.8 	 8
706.9 	 5
707.1 	 10
707.2 	 26
707.3 	 34
707.4 	 20
707.5 	 4
708.2 	 3
708.3 	 5
708.4 	 3
708.6 	 2
708.7 	 9
708.8 	 15
708.9 	 9
709.0 	 2
710.1 	 2
710.2 	 9
710.3 	 14
710.4 	 9
710.5 	 2
713.1 	 5
713.2 	 22
713.3 	 34
713.4 	 22
713.5 	 5
716.9 	 30
717.0 	 30
717.1 	 285
717.2 	 845
717.3 	 1484
717.4 	 1574
717.5 	 1319
717.6 	 1082
717.7 	 993
717.8 	 801
717.9 	 442
718.0 	 168
718.1 	 66
718.2 	 99
718.3 	 96
718.4 	 68
718.5 	 41
718.6 	 44
718.7 	 69
718.8 	 78
718.9 	 54
719.0 	 20
719.1 	 20
719.2 	 58
719.3 	 87
719.4 	 69
719.5 	 37
719.6 	 36
719.7 	 53
719.8 	 55
719.9 	 28
720.0 	 4
720.2 	 18
720.3 	 28
720.4 	 18
720.5 	 4
721.2 	 13
721.3 	 21
721.4 	 15
721.5 	 10
721.6 	 16
721.7 	 26
721.8 	 25
721.9 	 12
722.3 	 4
723.4 	 8
723.5 	 4
723.6 	 53
723.7 	 163
723.8 	 291
723.9 	 292
724.0 	 219
724.1 	 139
724.2 	 102
724.3 	 65
724.4 	 29
724.5 	 5
725.6 	 8
725.7 	 50
725.8 	 107
725.9 	 115
726.0 	 81
726.1 	 59
726.2 	 73
726.3 	 79
726.4 	 48
726.5 	 17
726.7 	 5
727.1 	 5
727.2 	 21
727.3 	 32
727.4 	 20
727.7 	 7
727.8 	 11
727.9 	 7
728.7 	 4
728.8 	 6
728.9 	 4
729.7 	 6
729.8 	 9
729.9 	 6
730.2 	 7
730.3 	 11
730.4 	 7
732.2 	 5
732.3 	 8
732.4 	 5
734.7 	 9
734.8 	 14
734.9 	 9
749.6 	 7
749.7 	 32
749.8 	 53
749.9 	 36
750.0 	 9
751.2 	 6
751.3 	 9
751.4 	 6
765.7 	 13
765.8 	 51
765.9 	 104
766.0 	 135
766.1 	 191
766.2 	 263
766.3 	 292
766.4 	 182
766.5 	 64
766.6 	 13
766.7 	 29
766.8 	 32
766.9 	 19
767.1 	 11
767.2 	 56
767.3 	 91
767.4 	 72
767.5 	 43
767.6 	 69
767.7 	 136
767.8 	 164
767.9 	 96
768.0 	 23
768.7 	 8
768.8 	 12
768.9 	 8
776.7 	 56
776.8 	 214
776.9 	 932
777.0 	 2240
777.1 	 7086
777.2 	 13173
777.3 	 15796
777.4 	 10475
777.5 	 4421
777.6 	 1470
777.7 	 1555
777.8 	 1145
777.9 	 728
778.0 	 408
778.1 	 290
778.2 	 336
778.3 	 328
778.4 	 255
778.5 	 165
778.6 	 226
778.7 	 434
778.8 	 611
778.9 	 540
779.0 	 387
779.1 	 343
779.2 	 428
779.3 	 463
779.4 	 359
779.5 	 238
779.6 	 196
779.7 	 230
779.8 	 228
779.9 	 154
780.0 	 82
780.1 	 69
780.2 	 103
780.3 	 103
780.4 	 54
780.5 	 7
780.7 	 28
780.8 	 47
780.9 	 32
781.0 	 6
781.2 	 30
781.3 	 64
781.4 	 74
781.5 	 55
781.6 	 64
781.7 	 117
781.8 	 170
781.9 	 145
782.0 	 90
782.1 	 54
782.2 	 50
782.3 	 41
782.4 	 20
783.6 	 8
783.7 	 44
783.8 	 106
783.9 	 198
784.0 	 310
784.1 	 548
784.2 	 801
784.3 	 902
784.4 	 643
784.5 	 331
784.6 	 151
784.7 	 137
784.8 	 103
784.9 	 50
785.0 	 8
785.2 	 10
785.3 	 16
785.4 	 10
786.1 	 25
786.2 	 103
786.3 	 190
786.4 	 198
786.5 	 179
786.6 	 194
786.7 	 231
786.8 	 231
786.9 	 166
787.0 	 100
787.1 	 77
787.2 	 98
787.3 	 101
787.4 	 56
787.6 	 21
787.7 	 107
787.8 	 180
787.9 	 158
788.0 	 105
788.1 	 84
788.2 	 100
788.3 	 100
788.4 	 63
788.5 	 29
788.6 	 19
788.7 	 36
788.8 	 52
788.9 	 59
789.0 	 42
789.1 	 63
789.2 	 134
789.3 	 200
789.4 	 157
789.5 	 83
789.6 	 68
789.7 	 111
789.8 	 125
789.9 	 74
790.0 	 21
791.2 	 15
791.3 	 24
791.4 	 15
793.2 	 6
793.3 	 9
793.4 	 6
802.7 	 5
802.8 	 8
802.9 	 5
804.7 	 4
804.8 	 6
804.9 	 4
817.6 	 8
817.7 	 39
817.8 	 75
817.9 	 73
818.0 	 63
818.1 	 67
818.2 	 79
818.3 	 59
818.4 	 23
819.1 	 5
819.2 	 21
819.3 	 32
819.4 	 21
819.5 	 5
831.2 	 6
831.3 	 9
831.4 	 6
835.2 	 13
835.3 	 28
835.4 	 38
835.5 	 46
835.6 	 100
835.7 	 171
835.8 	 193
835.9 	 108
836.0 	 24
836.2 	 13
836.3 	 13
836.4 	 6
836.9 	 4
837.0 	 6
837.1 	 17
837.2 	 41
837.3 	 63
837.4 	 51
837.5 	 23
837.6 	 5
837.7 	 4
837.8 	 4
843.2 	 6
843.3 	 9
843.4 	 6
847.4 	 70
847.6 	 623
847.7 	 2242
847.8 	 4140
847.9 	 4307
848.0 	 3309
848.1 	 2219
848.2 	 1690
848.3 	 1147
848.4 	 559
848.5 	 194
848.6 	 95
848.7 	 149
848.8 	 133
848.9 	 85
849.0 	 38
849.1 	 25
849.2 	 45
849.3 	 62
849.4 	 58
849.5 	 34
849.6 	 61
849.7 	 150
849.8 	 243
849.9 	 223
850.0 	 140
850.1 	 85
850.2 	 101
850.3 	 123
850.4 	 94
850.5 	 47
850.6 	 37
850.7 	 67
850.8 	 85
850.9 	 65
851.0 	 35
851.1 	 18
851.2 	 18
851.3 	 17
851.4 	 9
852.6 	 6
852.7 	 34
852.8 	 61
852.9 	 51
853.0 	 28
853.1 	 12
853.2 	 11
853.3 	 6
855.1 	 11
855.2 	 55
855.3 	 105
855.4 	 118
855.5 	 111
855.6 	 121
855.7 	 144
855.8 	 140
855.9 	 77
856.0 	 17
856.8 	 5
856.9 	 6
857.2 	 6
857.3 	 10
857.4 	 6
857.7 	 8
857.8 	 22
857.9 	 32
858.0 	 35
858.1 	 44
858.2 	 56
858.3 	 55
858.4 	 28
858.5 	 4
858.7 	 16
858.8 	 30
858.9 	 25
859.0 	 6
859.2 	 18
859.3 	 31
859.4 	 29
859.5 	 25
859.6 	 36
859.7 	 48
859.8 	 43
859.9 	 19
860.2 	 4
860.3 	 7
860.4 	 4
860.7 	 19
860.8 	 42
860.9 	 44
861.0 	 27
861.1 	 26
861.2 	 45
861.3 	 51
861.4 	 26
861.7 	 15
861.8 	 24
861.9 	 15
862.0 	 4
863.2 	 13
863.3 	 20
863.4 	 13
865.2 	 3
865.3 	 5
865.4 	 3
865.7 	 2
865.8 	 4
865.9 	 2
866.7 	 2
866.8 	 4
866.9 	 2
867.2 	 4
867.3 	 5
867.4 	 3
868.2 	 2
868.3 	 4
868.4 	 2
868.6 	 3
868.7 	 14
868.8 	 22
868.9 	 14
869.0 	 3
869.2 	 5
869.3 	 8
869.4 	 5
877.2 	 4
877.3 	 9
877.4 	 8
877.5 	 3
884.2 	 3
884.3 	 5
884.4 	 3
889.4 	 2
894.3 	 2
899.6 	 2
899.7 	 8
899.8 	 13
899.9 	 8
901.2 	 3
901.3 	 5
901.4 	 3
903.5 	 2
903.6 	 7
903.7 	 9
903.8 	 7
903.9 	 2
906.3 	 2
906.4 	 4
906.5 	 2
918.2 	 5
918.3 	 8
918.4 	 5
918.9 	 3
919.0 	 5
919.1 	 4
919.2 	 5
919.3 	 9
919.4 	 10
919.5 	 7
919.6 	 5
919.7 	 7
919.8 	 6
919.9 	 3
920.2 	 2
920.3 	 3
920.4 	 2
921.2 	 4
921.3 	 7
921.4 	 5
923.7 	 3
923.8 	 5
923.9 	 4
927.0 	 3
927.1 	 5
927.2 	 3
927.6 	 2
929.9 	 2
930.0 	 2
932.2 	 6
932.3 	 33
932.4 	 105
932.5 	 193
932.6 	 343
932.7 	 487
932.8 	 539
932.9 	 384
933.0 	 208
933.1 	 107
933.2 	 93
933.3 	 67
933.4 	 37
933.5 	 12
934.2 	 5
934.3 	 7
934.4 	 6
934.5 	 6
934.6 	 14
934.7 	 23
934.8 	 28
934.9 	 29
935.0 	 28
935.1 	 27
935.2 	 25
935.3 	 21
935.4 	 15
935.5 	 14
935.6 	 14
935.7 	 14
935.8 	 13
935.9 	 13
936.0 	 14
936.1 	 10
936.2 	 5
941.0 	 17
941.1 	 18
941.2 	 15
945.3 	 16
945.4 	 15
945.7 	 14
945.8 	 16
1036.1 	 26
1036.2 	 64
1036.3 	 109
1036.4 	 114
1036.5 	 94
1036.6 	 81
1036.7 	 85
1036.8 	 75
1036.9 	 45
1037.0 	 26
1037.1 	 23
1037.2 	 23
1037.3 	 17
1038.8 	 15
1052.7 	 15
1052.8 	 17
1165.7 	 26
1165.8 	 41
1165.9 	 45
1166.0 	 45
1166.1 	 56
1166.2 	 68
1166.3 	 67
1166.4 	 46
1166.5 	 27
1166.6 	 18
1166.7 	 16
1332.6 	 20
1332.7 	 26
1332.8 	 25
1332.9 	 25
1333.0 	 28
1333.1 	 31
1333.2 	 29
1333.3 	 23
