##Deconvoluted mass spectrum
1000.0 	 1
7261.1 	 0
7261.2 	 7
7261.3 	 10
7261.4 	 13
7261.5 	 16
7261.6 	 19
7261.7 	 22
7261.8 	 25
7261.9 	 28
7262.0 	 31
7262.1 	 34
7262.2 	 37
7262.3 	 40
7262.4 	 44
7262.5 	 48
7262.6 	 52
7262.7 	 56
7262.8 	 60
7262.9 	 64
7263.0 	 68
7263.1 	 72
7263.2 	 76
7263.3 	 80
7263.4 	 83
7263.5 	 84
7263.6 	 86
7263.7 	 87
7263.8 	 88
7263.9 	 90
7264.0 	 91
7264.1 	 92
7264.2 	 93
7264.3 	 95
7264.4 	 96
7264.5 	 97
7264.6 	 97
7264.7 	 97
7264.8 	 96
7264.9 	 96
7265.0 	 96
7265.1 	 96
7265.2 	 96
7265.3 	 96
7265.4 	 95
7265.5 	 95
7265.6 	 95
7265.7 	 96
7265.8 	 96
7265.9 	 97
7266.0 	 98
7266.1 	 98
7266.2 	 99
7266.3 	 100
7266.4 	 100
7266.5 	 101
7266.6 	 101
7266.7 	 102
7266.8 	 103
7266.9 	 104
7267.0 	 105
7267.1 	 106
7267.2 	 107
7267.3 	 108
7267.4 	 109
7267.5 	 110
7267.6 	 111
7267.7 	 112
7267.8 	 113
7267.9 	 112
7268.0 	 110
7268.1 	 109
7268.2 	 107
7268.3 	 106
7268.4 	 105
7268.5 	 103
7268.6 	 102
7268.7 	 100
7268.8 	 99
7268.9 	 97
7269.0 	 93
7269.1 	 88
7269.2 	 84
7269.3 	 80
7269.4 	 75
7269.5 	 71
7269.6 	 66
7269.7 	 62
7269.8 	 57
7269.9 	 53
7270.0 	 48
7270.1 	 45
7270.2 	 41
7270.3 	 38
7270.4 	 34
7270.5 	 31
7270.6 	 27
7270.7 	 24
7270.8 	 20
7270.9 	 17
7271.0 	 13
7271.1 	 10
7271.2 	 10
7271.3 	 10
7271.4 	 10
7271.5 	 10
7271.6 	 10
7277.2 	 6
7277.3 	 6
7277.4 	 6
7277.5 	 6
7277.6 	 6
7277.7 	 6
7277.8 	 8
7277.9 	 10
7278.0 	 12
7278.1 	 14
7278.2 	 16
7278.3 	 18
7278.4 	 20
7278.5 	 22
7278.6 	 23
7278.7 	 25
7278.9 	 0
7279.4 	 36
7279.5 	 37
7279.6 	 39
7279.7 	 40
7279.8 	 42
7279.9 	 43
7280.0 	 42
7280.1 	 40
7280.2 	 39
7280.3 	 38
7280.4 	 36
7280.5 	 35
7280.6 	 34
7280.7 	 33
7280.8 	 31
7280.9 	 30
7281.0 	 29
7281.1 	 27
7281.2 	 25
7281.3 	 23
7281.4 	 21
7281.5 	 19
7281.6 	 17
7281.7 	 15
7281.8 	 13
7281.9 	 11
7282.0 	 9
7282.1 	 7
7282.2 	 7
7282.3 	 7
7282.4 	 7
7282.5 	 7
7282.6 	 7
7283.8 	 6
7283.9 	 6
7284.0 	 6
7284.1 	 6
7284.2 	 6
7284.3 	 6
7284.4 	 6
7284.5 	 7
7284.6 	 7
7284.7 	 8
7284.8 	 8
7284.9 	 8
7285.0 	 9
7285.1 	 9
7285.2 	 9
7285.3 	 10
7285.4 	 10
7285.5 	 10
7285.6 	 9
7285.7 	 9
7285.8 	 8
7285.9 	 8
7286.0 	 8
7286.1 	 7
7286.2 	 7
7286.3 	 7
7286.4 	 6
7286.6 	 0
7385.4 	 0
7385.5 	 13
7385.6 	 13
7385.7 	 13
7385.8 	 13
7385.9 	 13
7386.0 	 13
7386.1 	 21
7386.2 	 23
7386.3 	 25
7386.4 	 14
7386.5 	 16
7386.6 	 17
7386.7 	 19
7386.8 	 21
7386.9 	 23
7387.0 	 25
7387.1 	 26
7387.2 	 27
7387.3 	 28
7387.4 	 29
7387.5 	 30
7387.6 	 31
7387.7 	 32
7387.8 	 33
7387.9 	 34
7388.0 	 35
7388.1 	 36
7388.2 	 34
7388.3 	 33
7388.4 	 31
7388.5 	 30
7388.6 	 28
7388.7 	 27
7388.8 	 25
7388.9 	 24
7389.0 	 22
7389.1 	 21
7389.2 	 19
7389.3 	 17
7389.4 	 15
7389.5 	 13
7389.6 	 12
7389.7 	 10
7389.8 	 8
7389.9 	 6
7390.0 	 4
7390.1 	 3
7390.2 	 3
7390.3 	 3
7390.4 	 3
7390.5 	 3
7391.6 	 3
7391.7 	 3
7391.8 	 3
7391.9 	 3
7392.0 	 3
7392.1 	 3
7392.2 	 3
7392.3 	 3
7392.4 	 4
7392.5 	 4
7392.6 	 4
7392.7 	 4
7392.8 	 4
7392.9 	 5
7393.0 	 5
7393.1 	 5
7393.2 	 5
7393.3 	 5
7393.4 	 4
7393.5 	 4
7393.6 	 4
7393.7 	 4
7393.8 	 4
7393.9 	 3
7394.0 	 3
7394.2 	 0
7475.6 	 0
7475.7 	 31
7475.8 	 38
7475.9 	 45
7476.0 	 52
7476.1 	 58
7476.2 	 66
7476.3 	 72
7476.4 	 79
7476.5 	 86
7476.6 	 93
7476.7 	 100
7476.8 	 107
7476.9 	 114
7477.0 	 122
7477.1 	 129
7477.2 	 136
7477.3 	 143
7477.4 	 151
7477.5 	 158
7477.6 	 165
7477.7 	 172
7477.8 	 180
7477.9 	 186
7478.0 	 186
7478.1 	 185
7478.2 	 185
7478.3 	 184
7478.4 	 184
7478.5 	 184
7478.6 	 183
7478.7 	 183
7478.8 	 183
7478.9 	 182
7479.0 	 182
7479.1 	 178
7479.2 	 174
7479.3 	 170
7479.4 	 166
7479.5 	 162
7479.6 	 158
7479.7 	 154
7479.8 	 150
7479.9 	 146
7480.0 	 142
7480.1 	 138
7480.2 	 134
7480.3 	 131
7480.4 	 128
7480.5 	 124
7480.6 	 121
7480.7 	 117
7480.8 	 114
7480.9 	 111
7481.0 	 107
7481.1 	 104
7481.2 	 101
7481.3 	 100
7481.4 	 98
7481.5 	 97
7481.6 	 96
7481.7 	 95
7481.8 	 94
7481.9 	 93
7482.0 	 91
7482.1 	 90
7482.2 	 89
7482.3 	 88
7482.4 	 85
7482.5 	 83
7482.6 	 81
7482.7 	 79
7482.8 	 76
7482.9 	 74
7483.0 	 72
7483.1 	 70
7483.2 	 67
7483.3 	 65
7483.4 	 63
7483.5 	 59
7483.6 	 56
7483.7 	 53
7483.8 	 50
7483.9 	 46
7484.0 	 43
7484.1 	 40
7484.2 	 36
7484.3 	 33
7484.4 	 30
7484.5 	 27
7484.6 	 25
7484.7 	 24
7484.8 	 22
7484.9 	 21
7485.0 	 19
7485.1 	 18
7485.2 	 16
7485.3 	 14
7485.4 	 13
7485.5 	 11
7485.6 	 10
7485.7 	 13
7485.8 	 15
7485.9 	 17
7486.0 	 19
7486.1 	 22
7486.2 	 24
7486.3 	 26
7486.4 	 28
7486.5 	 31
7486.6 	 33
7486.7 	 36
7486.8 	 39
7486.9 	 43
7487.0 	 47
7487.1 	 51
7487.2 	 55
7487.3 	 59
7487.4 	 63
7487.5 	 67
7487.6 	 71
7487.7 	 75
7487.8 	 78
7487.9 	 79
7488.0 	 81
7488.1 	 82
7488.2 	 83
7488.3 	 84
7488.4 	 86
7488.5 	 87
7488.6 	 88
7488.7 	 90
7488.8 	 91
7489.0 	 0
8085.6 	 0
8093.5 	 25
8093.6 	 25
8093.7 	 24
8093.8 	 24
8093.9 	 24
8094.0 	 23
8094.1 	 23
8094.2 	 26
8094.3 	 28
8094.4 	 30
8094.5 	 33
8094.6 	 35
8094.7 	 38
8094.8 	 40
8094.9 	 42
8095.0 	 45
8095.1 	 47
8095.2 	 50
8095.3 	 52
8095.4 	 56
8095.5 	 61
8095.6 	 65
8095.7 	 69
8095.8 	 73
8095.9 	 77
8096.0 	 81
8096.1 	 86
8096.2 	 90
8096.3 	 94
8096.4 	 98
8096.5 	 102
8096.6 	 105
8096.7 	 108
8096.8 	 110
8096.9 	 113
8097.0 	 116
8097.1 	 119
8097.2 	 121
8097.3 	 124
8097.4 	 127
8097.5 	 130
8097.6 	 132
8097.7 	 135
8097.8 	 132
8097.9 	 130
8098.0 	 128
8098.1 	 126
8098.2 	 123
8098.3 	 129
8098.4 	 128
8098.5 	 126
8098.6 	 125
8098.7 	 124
8098.8 	 122
8098.9 	 121
8099.0 	 118
8099.1 	 115
8099.2 	 112
8099.3 	 109
8099.4 	 106
8099.5 	 103
8099.6 	 99
8099.7 	 96
8099.8 	 92
8099.9 	 89
8100.0 	 86
8100.1 	 82
8100.2 	 81
8100.3 	 80
8100.4 	 79
8100.5 	 78
8100.6 	 76
8100.7 	 75
8100.8 	 73
8100.9 	 71
8101.0 	 69
8101.1 	 68
8101.2 	 66
8101.3 	 64
8101.4 	 65
8101.5 	 66
8101.6 	 68
8101.7 	 70
8101.8 	 72
8101.9 	 74
8102.0 	 76
8102.1 	 78
8102.2 	 81
8102.3 	 83
8102.4 	 85
8102.5 	 87
8102.6 	 88
8102.7 	 89
8102.8 	 90
8102.9 	 92
8103.0 	 93
8103.1 	 95
8103.2 	 96
8103.3 	 98
8103.4 	 99
8103.5 	 100
8103.6 	 102
8103.7 	 103
8103.8 	 101
8103.9 	 99
8104.0 	 97
8104.1 	 94
8104.2 	 92
8104.3 	 90
8104.4 	 88
8104.5 	 85
8104.6 	 83
8104.7 	 81
8104.8 	 78
8104.9 	 76
8105.0 	 72
8105.1 	 67
8105.2 	 63
8105.3 	 59
8105.4 	 55
8105.5 	 51
8105.6 	 47
8105.7 	 42
8105.8 	 38
8105.9 	 34
8106.0 	 30
8106.1 	 18
8106.2 	 17
8106.3 	 15
8106.4 	 14
8106.5 	 12
8106.6 	 10
8106.7 	 9
8106.8 	 7
8106.9 	 6
8107.0 	 4
8107.1 	 3
8107.2 	 3
8107.3 	 3
8107.4 	 3
8107.5 	 3
8107.6 	 3
8108.8 	 4
8108.9 	 4
8109.0 	 4
8109.1 	 4
8109.2 	 4
8109.3 	 4
8109.4 	 4
8109.5 	 4
8109.6 	 5
8109.7 	 5
8109.8 	 5
8109.9 	 5
8110.0 	 5
8110.1 	 6
8110.2 	 6
8110.3 	 6
8110.4 	 6
8110.5 	 6
8110.6 	 6
8110.7 	 5
8110.8 	 5
8110.9 	 5
8111.0 	 5
8111.1 	 5
8111.2 	 4
8111.3 	 4
8111.4 	 4
8111.6 	 0
8712.6 	 0
8712.8 	 13
8712.9 	 15
8713.0 	 18
8713.1 	 20
8713.2 	 22
8713.3 	 24
8713.4 	 27
8713.5 	 29
8713.6 	 31
8713.7 	 33
8713.8 	 94
8713.9 	 98
8714.0 	 101
8714.1 	 117
8714.2 	 134
8714.3 	 176
8714.4 	 198
8714.5 	 319
8714.6 	 368
8714.7 	 418
8714.8 	 486
8714.9 	 537
8715.0 	 588
8715.1 	 639
8715.2 	 705
8715.3 	 783
8715.4 	 958
8715.5 	 1137
8715.6 	 1317
8715.7 	 1498
8715.8 	 1716
8715.9 	 1923
8716.0 	 1019
8716.1 	 1154
8716.2 	 1246
8716.3 	 1339
8716.4 	 1432
8716.5 	 1524
8716.6 	 1636
8716.7 	 1751
8716.8 	 1866
8716.9 	 1981
8717.0 	 2105
8717.1 	 2228
8717.2 	 2352
8717.3 	 5205
8717.4 	 5452
8717.5 	 5700
8717.6 	 5950
8717.7 	 6201
8717.8 	 6451
8717.9 	 6701
8718.0 	 7352
8718.1 	 8014
8718.2 	 8680
8718.3 	 9346
8718.4 	 10012
8718.5 	 10677
8718.6 	 11338
8718.7 	 12000
8718.8 	 12660
8718.9 	 13320
8719.0 	 13980
8719.1 	 14639
8719.2 	 15296
8719.3 	 15850
8719.4 	 16335
8719.5 	 16816
8719.6 	 17297
8719.7 	 17778
8719.8 	 18259
8719.9 	 18750
8720.0 	 19224
8720.1 	 19698
8720.2 	 20174
8720.3 	 20648
8720.4 	 21122
8720.5 	 21579
8720.6 	 21317
8720.7 	 21035
8720.8 	 20728
8720.9 	 20417
8721.0 	 20095
8721.1 	 19775
8721.2 	 19458
8721.3 	 19140
8721.4 	 18823
8721.5 	 18507
8721.6 	 18191
8721.7 	 17870
8721.8 	 17447
8721.9 	 16832
8722.0 	 16211
8722.1 	 15591
8722.2 	 14965
8722.3 	 14339
8722.4 	 13713
8722.5 	 13086
8722.6 	 12457
8722.7 	 11828
8722.8 	 11199
8722.9 	 10571
8723.0 	 9961
8723.1 	 9351
8723.2 	 8926
8723.3 	 8492
8723.4 	 8059
8723.5 	 7625
8723.6 	 7199
8723.7 	 6773
8723.8 	 6347
8723.9 	 5921
8724.0 	 5495
8724.1 	 5061
8724.2 	 4682
8724.3 	 4319
8724.4 	 3956
8724.5 	 3864
8724.6 	 3780
8724.7 	 3696
8724.8 	 3613
8724.9 	 3530
8725.0 	 3441
8725.1 	 3335
8725.2 	 3249
8725.3 	 3164
8725.4 	 3117
8725.5 	 3070
8725.6 	 3023
8725.7 	 2977
8725.8 	 2918
8725.9 	 2859
8726.0 	 2800
8726.1 	 2741
8726.2 	 2682
8726.3 	 2623
8726.4 	 2558
8726.5 	 2477
8726.6 	 2401
8726.7 	 2324
8726.8 	 2248
8726.9 	 2171
8727.0 	 2095
8727.1 	 2024
8727.2 	 1953
8727.3 	 1882
8727.4 	 1812
8727.5 	 1716
8727.6 	 1648
8727.7 	 1580
8727.8 	 1518
8727.9 	 1457
8728.0 	 1397
8728.1 	 1336
8728.2 	 1276
8728.3 	 1215
8728.4 	 1163
8728.5 	 1111
8728.6 	 1059
8728.7 	 1007
8728.8 	 955
8728.9 	 903
8729.0 	 852
8729.1 	 800
8729.2 	 761
8729.3 	 722
8729.4 	 684
8729.5 	 646
8729.6 	 607
8729.7 	 586
8729.8 	 566
8729.9 	 546
8730.0 	 526
8730.1 	 506
8730.2 	 489
8730.3 	 472
8730.4 	 456
8730.5 	 439
8730.6 	 429
8730.7 	 420
8730.8 	 411
8730.9 	 402
8731.0 	 408
8731.1 	 415
8731.2 	 421
8731.3 	 428
8731.4 	 437
8731.5 	 447
8731.6 	 456
8731.7 	 466
8731.8 	 475
8731.9 	 484
8732.0 	 490
8732.1 	 496
8732.2 	 502
8732.3 	 504
8732.4 	 506
8732.5 	 446
8732.6 	 447
8732.7 	 448
8732.8 	 449
8732.9 	 450
8733.0 	 450
8733.1 	 517
8733.2 	 519
8733.3 	 520
8733.4 	 520
8733.5 	 519
8733.6 	 148
8733.7 	 146
8733.8 	 141
8733.9 	 136
8734.0 	 132
8734.1 	 127
8734.2 	 449
8734.3 	 438
8734.4 	 428
8734.5 	 417
8734.6 	 406
8734.7 	 396
8734.8 	 342
8734.9 	 331
8735.0 	 319
8735.1 	 308
8735.2 	 296
8735.3 	 284
8735.4 	 273
8735.5 	 261
8735.6 	 249
8735.7 	 238
8735.8 	 226
8735.9 	 214
8736.0 	 203
8736.1 	 191
8736.2 	 194
8736.3 	 197
8736.4 	 201
8736.5 	 204
8736.6 	 207
8736.7 	 210
8736.8 	 214
8736.9 	 217
8737.0 	 220
8737.1 	 223
8737.2 	 226
8737.3 	 230
8737.4 	 238
8737.5 	 258
8737.6 	 278
8737.7 	 299
8737.8 	 319
8737.9 	 340
8738.0 	 361
8738.1 	 400
8738.2 	 421
8738.3 	 463
8738.4 	 483
8738.5 	 503
8738.6 	 523
8738.7 	 542
8738.8 	 562
8738.9 	 581
8739.0 	 601
8739.1 	 622
8739.2 	 642
8739.3 	 662
8739.4 	 682
8739.5 	 702
8739.6 	 722
8739.7 	 742
8739.8 	 756
8739.9 	 769
8740.0 	 796
8740.1 	 794
8740.2 	 792
8740.3 	 790
8740.4 	 788
8740.5 	 785
8740.6 	 783
8740.7 	 798
8740.8 	 798
8740.9 	 797
8741.0 	 793
8741.1 	 789
8741.2 	 786
8741.3 	 783
8741.4 	 774
8741.5 	 764
8741.6 	 755
8741.7 	 746
8741.8 	 736
8741.9 	 725
8742.0 	 714
8742.1 	 703
8742.2 	 694
8742.3 	 685
8742.4 	 676
8742.5 	 666
8742.6 	 657
8742.7 	 641
8742.8 	 637
8742.9 	 632
8743.0 	 626
8743.1 	 619
8743.2 	 612
8743.3 	 605
8743.4 	 599
8743.5 	 594
8743.6 	 588
8743.7 	 583
8743.8 	 577
8743.9 	 572
8744.0 	 571
8744.1 	 553
8744.2 	 553
8744.3 	 552
8744.4 	 552
8744.5 	 551
8744.6 	 548
8744.7 	 546
8744.8 	 544
8744.9 	 542
8745.0 	 540
8745.1 	 538
8745.2 	 537
8745.3 	 531
8745.4 	 525
8745.5 	 519
8745.6 	 513
8745.7 	 507
8745.8 	 499
8745.9 	 490
8746.0 	 481
8746.1 	 472
8746.2 	 462
8746.3 	 454
8746.4 	 446
8746.5 	 437
8746.6 	 423
8746.7 	 409
8746.8 	 394
8746.9 	 380
8747.0 	 366
8747.1 	 353
8747.2 	 340
8747.3 	 327
8747.4 	 312
8747.5 	 296
8747.6 	 281
8747.7 	 265
8747.8 	 250
8747.9 	 237
8748.0 	 224
8748.1 	 211
8748.2 	 201
8748.3 	 192
8748.4 	 182
8748.5 	 172
8748.6 	 161
8748.7 	 140
8748.8 	 130
8748.9 	 121
8749.0 	 111
8749.1 	 102
8749.2 	 100
8749.3 	 98
8749.4 	 96
8749.5 	 77
8749.6 	 77
8749.7 	 76
8749.8 	 76
8749.9 	 89
8750.0 	 89
8750.1 	 74
8750.2 	 74
8750.3 	 74
8750.4 	 74
8750.5 	 80
8750.6 	 87
8750.7 	 94
8750.8 	 101
8750.9 	 108
8751.0 	 115
8751.1 	 122
8751.2 	 129
8751.3 	 136
8751.4 	 143
8751.5 	 150
8751.6 	 157
8751.7 	 141
8751.8 	 145
8751.9 	 149
8752.0 	 154
8752.1 	 158
8752.2 	 162
8752.3 	 180
8752.4 	 184
8752.5 	 189
8752.6 	 193
8752.7 	 197
8752.8 	 202
8752.9 	 206
8753.0 	 211
8753.1 	 15
8753.2 	 16
8753.3 	 16
8753.4 	 17
8753.5 	 17
8753.6 	 18
8753.7 	 30
8753.8 	 30
8753.9 	 12
8754.0 	 11
8754.1 	 11
8754.2 	 11
8754.4 	 0
10700.0 	 1
##ESI mass spectrum
##Adduct mass = -1.0079
612.3 	 15
621.4 	 58
621.5 	 73
621.6 	 315
621.7 	 859
621.8 	 1534
621.9 	 1702
622.0 	 1490
622.1 	 1207
622.2 	 1026
622.3 	 754
622.4 	 375
622.5 	 126
622.6 	 60
622.7 	 100
622.8 	 87
622.9 	 46
623.2 	 17
623.3 	 29
623.4 	 29
623.5 	 24
623.6 	 28
623.7 	 38
623.8 	 37
623.9 	 19
624.3 	 11
625.8 	 16
647.6 	 2
647.7 	 8
647.8 	 13
647.9 	 8
648.0 	 2
659.1 	 7
659.2 	 40
659.3 	 83
659.4 	 97
659.5 	 95
659.6 	 102
659.7 	 113
659.8 	 98
659.9 	 49
660.0 	 10
660.6 	 6
660.7 	 27
660.8 	 43
660.9 	 29
661.0 	 7
661.2 	 6
661.3 	 10
661.4 	 6
662.6 	 3
662.7 	 13
662.8 	 20
662.9 	 12
663.0 	 2
669.2 	 11
669.3 	 40
669.4 	 241
669.6 	 3482
669.7 	 10363
669.8 	 15928
669.9 	 12516
670.0 	 6246
670.1 	 2225
670.2 	 1828
670.3 	 1269
670.4 	 786
670.5 	 416
670.6 	 281
670.7 	 347
670.8 	 369
670.9 	 290
671.0 	 171
671.1 	 191
671.2 	 377
671.3 	 556
671.4 	 525
671.5 	 416
671.6 	 367
671.7 	 375
671.8 	 315
671.9 	 175
672.0 	 65
672.1 	 59
672.2 	 141
672.3 	 196
672.4 	 159
672.5 	 92
672.6 	 60
672.7 	 76
672.8 	 91
672.9 	 80
673.0 	 56
673.1 	 42
673.2 	 41
673.3 	 39
673.4 	 27
673.5 	 23
673.6 	 52
673.7 	 102
673.8 	 135
673.9 	 107
674.0 	 60
674.1 	 43
674.2 	 62
674.3 	 67
674.4 	 37
674.5 	 8
676.0 	 3
676.1 	 13
676.2 	 19
676.3 	 20
676.4 	 10
676.5 	 2
677.2 	 2
677.3 	 4
677.4 	 2
678.6 	 30
678.7 	 106
678.8 	 186
678.9 	 182
679.0 	 138
679.1 	 101
679.2 	 88
679.3 	 63
679.4 	 27
679.5 	 10
679.6 	 35
679.7 	 78
679.8 	 92
679.9 	 55
680.0 	 18
680.1 	 5
680.2 	 11
680.3 	 10
680.4 	 5
680.6 	 5
680.7 	 26
680.8 	 47
680.9 	 43
681.0 	 30
681.1 	 24
681.2 	 28
681.3 	 24
681.4 	 12
681.5 	 2
701.2 	 8
701.3 	 23
701.4 	 36
701.5 	 40
701.6 	 49
701.7 	 55
701.8 	 47
701.9 	 21
702.0 	 3
714.1 	 5
714.2 	 31
714.3 	 62
714.4 	 59
714.5 	 39
714.6 	 24
714.7 	 20
714.8 	 9
715.7 	 5
715.8 	 8
715.9 	 5
716.2 	 6
716.3 	 9
716.4 	 6
725.2 	 98
725.3 	 431
725.4 	 1081
725.5 	 1818
725.6 	 2698
725.7 	 3211
725.8 	 2950
725.9 	 1658
726.0 	 595
726.1 	 176
726.2 	 242
726.3 	 192
726.4 	 124
726.5 	 62
726.6 	 44
726.7 	 62
726.8 	 70
726.9 	 50
727.0 	 20
727.1 	 40
727.2 	 115
727.3 	 186
727.4 	 179
727.5 	 140
727.6 	 123
727.7 	 125
727.8 	 103
727.9 	 49
728.0 	 9
728.2 	 15
728.3 	 23
728.4 	 16
728.5 	 4
728.7 	 4
728.8 	 9
728.9 	 7
729.0 	 3
729.7 	 6
729.8 	 12
729.9 	 14
730.0 	 10
730.1 	 11
730.2 	 15
730.3 	 16
730.4 	 8
730.5 	 2
732.2 	 2
732.3 	 4
732.4 	 2
735.2 	 8
735.3 	 19
735.4 	 24
735.5 	 20
735.6 	 26
735.7 	 37
735.8 	 39
735.9 	 20
736.0 	 3
736.2 	 4
736.3 	 6
736.4 	 4
737.6 	 8
737.7 	 26
737.8 	 36
737.9 	 21
738.0 	 3
738.2 	 3
738.3 	 5
738.4 	 3
741.4 	 2
744.3 	 2
765.3 	 14
779.3 	 15
779.4 	 19
779.5 	 13
788.8 	 13
788.9 	 12
791.2 	 25
791.3 	 82
791.4 	 168
791.5 	 246
791.6 	 341
791.7 	 416
791.8 	 419
791.9 	 284
792.0 	 148
792.1 	 80
792.2 	 71
792.3 	 50
792.4 	 25
793.6 	 18
793.7 	 40
793.8 	 51
793.9 	 36
794.0 	 17
794.1 	 15
794.2 	 25
794.3 	 25
794.4 	 14
794.7 	 14
794.8 	 19
794.9 	 14
819.6 	 13
819.7 	 13
828.9 	 13
841.2 	 15
841.3 	 23
841.4 	 23
841.5 	 18
841.6 	 17
841.7 	 20
841.8 	 22
841.9 	 15
842.2 	 18
842.3 	 18
870.6 	 50
870.7 	 132
870.8 	 210
870.9 	 199
871.0 	 151
871.1 	 120
871.2 	 114
871.3 	 93
871.4 	 50
871.5 	 17
872.8 	 19
872.9 	 21
873.0 	 16
873.1 	 16
873.2 	 21
873.3 	 24
873.4 	 16
967.3 	 18
967.4 	 33
967.5 	 40
967.6 	 58
967.7 	 96
967.8 	 132
967.9 	 122
968.0 	 88
968.1 	 62
968.2 	 51
968.3 	 36
968.4 	 20
968.5 	 14
968.6 	 13
970.1 	 13
970.2 	 16
970.3 	 15
970.4 	 11
1013.0 	 11
1019.3 	 11
1066.3 	 13
1088.4 	 11
1088.5 	 16
1088.6 	 41
1088.7 	 80
1088.8 	 111
1088.9 	 108
1089.0 	 82
1089.1 	 64
1089.2 	 61
1089.3 	 58
1089.4 	 34
1089.5 	 12
1244.1 	 12
1244.2 	 21
1244.3 	 30
1244.4 	 35
1244.5 	 32
1244.6 	 31
1244.7 	 36
1244.8 	 39
1244.9 	 24
1245.2 	 12
1245.3 	 11
1268.6 	 17
1268.7 	 20
1268.8 	 11
1452.3 	 17
1452.4 	 14
