##Deconvoluted mass spectrum
1000.0 	 1
2854.7 	 0
2854.9 	 4
2855.0 	 7
2855.1 	 10
2855.2 	 13
2855.3 	 15
2855.4 	 17
2855.5 	 16
2855.6 	 14
2855.7 	 12
2855.8 	 11
2855.9 	 10
2856.0 	 8
2856.1 	 11
2856.2 	 14
2856.3 	 18
2856.4 	 24
2856.5 	 30
2856.6 	 36
2856.7 	 39
2856.8 	 41
2856.9 	 43
2857.0 	 38
2857.1 	 32
2857.2 	 26
2857.3 	 19
2857.4 	 13
2857.5 	 6
2857.6 	 0
3429.1 	 0
3432.3 	 7
3432.4 	 7
3432.5 	 12
3432.6 	 20
3432.7 	 27
3432.8 	 35
3432.9 	 43
3433.0 	 51
3433.1 	 59
3433.2 	 67
3433.3 	 69
3433.4 	 68
3433.5 	 66
3433.6 	 64
3433.7 	 60
3433.8 	 55
3433.9 	 50
3434.0 	 45
3434.1 	 41
3434.2 	 38
3434.3 	 36
3434.4 	 33
3434.5 	 32
3434.6 	 32
3434.7 	 33
3434.8 	 33
3434.9 	 31
3435.0 	 29
3435.1 	 26
3435.2 	 24
3435.3 	 21
3435.4 	 17
3435.5 	 14
3435.6 	 10
3435.7 	 0
4781.0 	 0
4781.1 	 2
4781.2 	 2
4781.3 	 2
4781.4 	 2
4781.5 	 3
4781.6 	 3
4781.7 	 3
4781.8 	 3
4781.9 	 3
4782.0 	 3
4782.1 	 2
4782.2 	 2
4782.3 	 2
4782.4 	 2
4782.5 	 2
4782.6 	 2
4782.7 	 3
4782.8 	 3
4783.6 	 5
4783.7 	 6
4783.8 	 6
4783.9 	 6
4784.0 	 7
4784.1 	 8
4784.2 	 9
4784.3 	 10
4784.4 	 11
4784.5 	 12
4784.6 	 12
4784.7 	 12
4784.8 	 11
4784.9 	 11
4785.0 	 11
4785.1 	 10
4785.2 	 10
4785.3 	 10
4785.4 	 9
4785.5 	 8
4785.6 	 7
4785.7 	 6
4785.8 	 5
4785.9 	 4
4786.0 	 3
4786.1 	 3
4786.2 	 3
4786.3 	 3
4791.7 	 0
5737.2 	 0
5737.3 	 7
5737.4 	 10
5737.5 	 12
5737.6 	 14
5737.7 	 17
5737.8 	 19
5737.9 	 22
5738.0 	 24
5738.1 	 25
5738.2 	 26
5738.3 	 28
5738.4 	 29
5738.5 	 31
5738.6 	 32
5738.7 	 32
5738.8 	 30
5738.9 	 28
5739.0 	 26
5739.1 	 24
5739.2 	 21
5739.3 	 19
5739.4 	 18
5739.5 	 17
5739.6 	 17
5739.7 	 16
5741.2 	 9
5741.3 	 9
5741.4 	 8
5741.5 	 8
5741.6 	 9
5741.7 	 9
5741.8 	 10
5741.9 	 10
5742.0 	 11
5742.1 	 12
5742.2 	 12
5742.3 	 11
5742.4 	 11
5742.5 	 10
5742.6 	 10
5742.7 	 9
5742.8 	 8
5742.9 	 8
5743.0 	 8
5743.1 	 8
5743.2 	 8
5744.0 	 7
5744.1 	 7
5744.2 	 7
5744.3 	 8
5744.4 	 10
5744.5 	 12
5744.6 	 14
5744.7 	 16
5744.8 	 19
5744.9 	 21
5745.0 	 22
5745.1 	 24
5745.2 	 25
5745.3 	 26
5745.4 	 27
5745.5 	 28
5745.6 	 29
5745.8 	 0
6146.4 	 0
6146.5 	 10
6146.6 	 9
6146.7 	 9
6146.8 	 8
6146.9 	 8
6147.0 	 7
6147.1 	 7
6147.2 	 6
6147.3 	 6
6147.4 	 6
6147.5 	 6
6147.6 	 6
6149.3 	 6
6149.4 	 6
6149.5 	 6
6149.6 	 6
6149.7 	 6
6149.8 	 7
6149.9 	 7
6150.0 	 8
6150.1 	 8
6150.2 	 9
6150.3 	 9
6150.4 	 10
6150.5 	 10
6150.6 	 9
6150.7 	 9
6150.8 	 8
6150.9 	 8
6151.0 	 7
6151.1 	 7
6151.2 	 6
6151.3 	 6
6151.4 	 6
6151.5 	 7
6151.6 	 7
6153.3 	 13
6153.4 	 13
6153.5 	 14
6153.6 	 14
6153.7 	 14
6153.8 	 15
6153.9 	 16
6154.0 	 17
6154.1 	 18
6154.2 	 19
6154.3 	 20
6154.4 	 21
6154.5 	 22
6154.6 	 21
6154.7 	 20
6154.8 	 19
6154.9 	 18
6155.0 	 17
6155.1 	 16
6155.2 	 15
6155.4 	 0
7020.8 	 0
7020.9 	 5
7021.0 	 6
7021.1 	 11
7021.2 	 14
7021.3 	 17
7021.4 	 20
7021.5 	 23
7021.6 	 26
7021.7 	 28
7021.8 	 31
7021.9 	 43
7022.0 	 46
7022.1 	 50
7022.2 	 54
7022.3 	 57
7022.4 	 61
7022.5 	 64
7022.6 	 65
7022.7 	 66
7022.8 	 67
7022.9 	 68
7023.0 	 68
7023.1 	 68
7023.2 	 68
7023.3 	 66
7023.4 	 64
7023.5 	 63
7023.6 	 61
7023.7 	 59
7023.8 	 57
7023.9 	 55
7024.0 	 53
7024.1 	 52
7024.2 	 51
7024.3 	 51
7024.4 	 51
7024.5 	 51
7024.6 	 50
7024.7 	 51
7024.8 	 51
7024.9 	 53
7025.0 	 56
7025.1 	 58
7025.2 	 62
7025.3 	 65
7025.4 	 68
7025.5 	 71
7025.6 	 74
7025.7 	 78
7025.8 	 80
7025.9 	 82
7026.0 	 84
7026.1 	 87
7026.2 	 90
7026.3 	 94
7026.4 	 97
7026.5 	 98
7026.6 	 95
7026.7 	 93
7026.8 	 90
7026.9 	 88
7027.0 	 85
7027.1 	 83
7027.2 	 81
7027.3 	 78
7027.4 	 73
7027.5 	 68
7027.6 	 63
7027.7 	 58
7027.8 	 53
7027.9 	 49
7028.0 	 44
7028.1 	 40
7028.2 	 24
7028.3 	 24
7028.4 	 23
7028.5 	 22
7028.6 	 22
7028.7 	 21
7028.8 	 21
7028.9 	 21
7029.0 	 24
7029.1 	 27
7029.2 	 30
7029.3 	 32
7029.4 	 35
7029.5 	 38
7029.6 	 40
7029.7 	 42
7029.8 	 43
7029.9 	 44
7030.0 	 45
7030.1 	 43
7030.2 	 45
7030.3 	 48
7030.4 	 50
7030.5 	 50
7030.6 	 48
7030.7 	 45
7030.8 	 43
7030.9 	 41
7031.0 	 38
7031.1 	 36
7031.2 	 34
7031.3 	 31
7031.4 	 28
7031.5 	 25
7031.6 	 22
7031.7 	 18
7031.8 	 15
7031.9 	 12
7032.0 	 9
7032.2 	 0
7138.8 	 0
7138.9 	 6
7139.0 	 7
7139.1 	 7
7139.2 	 8
7139.3 	 8
7139.4 	 8
7139.5 	 9
7139.6 	 9
7139.7 	 10
7139.8 	 10
7139.9 	 9
7140.0 	 9
7140.1 	 8
7140.2 	 8
7140.3 	 8
7140.4 	 7
7140.5 	 7
7140.6 	 6
7140.8 	 0
7162.4 	 0
7169.3 	 9
7169.4 	 9
7169.5 	 9
7169.6 	 9
7169.7 	 9
7169.8 	 10
7169.9 	 10
7170.0 	 11
7170.1 	 12
7170.2 	 12
7170.3 	 13
7170.4 	 14
7170.5 	 14
7170.6 	 13
7170.7 	 12
7170.8 	 12
7170.9 	 11
7171.0 	 11
7171.1 	 10
7171.2 	 9
7171.4 	 0
8109.0 	 0
8110.8 	 0
8110.9 	 6
8111.0 	 6
8111.1 	 7
8111.2 	 7
8111.3 	 7
8111.4 	 8
8111.5 	 8
8111.6 	 8
8111.7 	 9
8111.8 	 9
8111.9 	 8
8112.0 	 8
8112.1 	 7
8112.2 	 7
8112.3 	 6
8112.4 	 6
8112.5 	 5
8112.6 	 4
8112.7 	 4
8112.8 	 5
8112.9 	 6
8113.0 	 7
8113.1 	 8
8114.1 	 16
8114.2 	 17
8114.3 	 18
8114.4 	 18
8114.5 	 20
8114.6 	 24
8114.7 	 28
8114.8 	 40
8114.9 	 45
8115.0 	 49
8115.1 	 54
8115.2 	 58
8115.3 	 62
8115.4 	 66
8115.5 	 67
8115.6 	 68
8115.7 	 70
8115.8 	 71
8115.9 	 73
8116.0 	 73
8116.1 	 73
8116.2 	 74
8116.3 	 73
8116.4 	 69
8116.5 	 65
8116.6 	 61
8116.7 	 57
8116.8 	 53
8116.9 	 50
8117.0 	 37
8117.1 	 33
8117.2 	 31
8117.3 	 30
8117.4 	 30
8117.5 	 29
8117.6 	 28
8118.6 	 126
8118.7 	 123
8118.8 	 120
8118.9 	 118
8119.0 	 115
8119.1 	 112
8119.2 	 105
8119.3 	 99
8119.4 	 92
8119.5 	 103
8119.6 	 96
8119.7 	 89
8119.8 	 82
8119.9 	 75
8120.0 	 69
8120.1 	 64
8120.2 	 62
8120.3 	 59
8120.4 	 56
8120.5 	 54
8120.6 	 52
8120.7 	 49
8120.8 	 46
8120.9 	 42
8121.0 	 38
8121.1 	 35
8121.2 	 36
8121.3 	 38
8121.4 	 40
8121.5 	 41
8121.6 	 43
8121.7 	 45
8121.8 	 48
8121.9 	 51
8122.0 	 54
8122.1 	 56
8122.2 	 44
8122.3 	 47
8122.4 	 50
8122.5 	 53
8122.6 	 56
8122.7 	 59
8122.8 	 62
8122.9 	 65
8123.0 	 68
8123.1 	 70
8123.2 	 68
8123.3 	 66
8123.4 	 64
8123.5 	 62
8123.6 	 61
8123.7 	 59
8123.8 	 57
8123.9 	 55
8124.0 	 72
8124.1 	 70
8124.2 	 66
8124.3 	 63
8124.4 	 60
8124.5 	 57
8124.6 	 55
8124.7 	 52
8124.8 	 50
8124.9 	 47
8125.0 	 45
8125.1 	 43
8125.2 	 44
8125.3 	 15
8125.4 	 15
8125.5 	 14
8128.2 	 0
8149.2 	 0
8149.3 	 4
8149.4 	 5
8149.5 	 6
8149.6 	 6
8149.7 	 7
8149.8 	 8
8149.9 	 8
8150.0 	 9
8150.1 	 10
8150.2 	 11
8150.3 	 12
8150.4 	 12
8150.5 	 13
8150.6 	 14
8150.7 	 15
8150.8 	 16
8150.9 	 16
8151.0 	 17
8151.1 	 18
8151.2 	 19
8151.3 	 20
8151.4 	 20
8151.5 	 21
8151.6 	 22
8151.7 	 23
8151.8 	 23
8151.9 	 22
8152.0 	 22
8152.1 	 22
8152.2 	 22
8152.3 	 22
8152.4 	 21
8152.5 	 21
8152.6 	 21
8152.7 	 20
8152.8 	 20
8152.9 	 20
8153.0 	 19
8153.1 	 18
8153.2 	 17
8153.3 	 16
8153.4 	 15
8153.5 	 14
8153.6 	 13
8153.7 	 12
8153.8 	 11
8153.9 	 10
8154.0 	 9
8154.2 	 0
8199.0 	 0
8208.6 	 23
8208.7 	 22
8208.8 	 21
8208.9 	 19
8209.0 	 18
8209.1 	 17
8209.2 	 15
8209.3 	 14
8209.4 	 13
8209.5 	 12
8209.6 	 10
8209.7 	 9
8209.8 	 8
8209.9 	 6
8210.0 	 5
8210.1 	 4
8210.2 	 4
8210.3 	 4
8210.4 	 4
8210.5 	 4
8219.2 	 0
8565.7 	 0
8565.8 	 7
8565.9 	 7
8566.0 	 8
8566.1 	 17
8566.2 	 20
8566.3 	 24
8566.4 	 27
8566.5 	 31
8566.6 	 34
8566.7 	 38
8566.8 	 41
8566.9 	 44
8567.0 	 47
8567.1 	 50
8567.2 	 53
8567.3 	 55
8567.4 	 58
8567.5 	 61
8567.6 	 64
8567.7 	 66
8567.8 	 69
8567.9 	 72
8568.0 	 75
8568.1 	 80
8568.2 	 80
8568.3 	 79
8568.4 	 79
8568.5 	 79
8568.6 	 72
8568.7 	 72
8568.8 	 72
8568.9 	 72
8569.0 	 72
8569.1 	 71
8569.2 	 69
8569.3 	 67
8569.4 	 65
8569.5 	 62
8569.6 	 60
8569.7 	 58
8569.8 	 56
8569.9 	 53
8570.0 	 51
8570.1 	 49
8570.2 	 48
8570.3 	 46
8570.4 	 44
8570.5 	 43
8570.6 	 41
8570.7 	 39
8570.8 	 36
8570.9 	 34
8571.0 	 32
8571.1 	 30
8571.2 	 30
8571.3 	 30
8571.4 	 30
8571.5 	 30
8571.6 	 29
8571.7 	 29
8571.8 	 28
8571.9 	 33
8572.0 	 32
8572.1 	 31
8572.2 	 30
8572.3 	 29
8572.4 	 23
8572.5 	 22
8572.6 	 21
8572.7 	 20
8572.8 	 19
8572.9 	 13
8573.0 	 13
8573.1 	 13
8573.2 	 12
8573.3 	 12
8573.4 	 11
8573.5 	 10
8573.6 	 10
8573.7 	 9
8573.8 	 9
8573.9 	 8
8574.0 	 8
8574.2 	 0
8583.3 	 0
8583.4 	 3
8583.5 	 3
8583.6 	 4
8583.7 	 4
8583.8 	 4
8583.9 	 4
8584.0 	 4
8584.1 	 5
8584.2 	 5
8584.3 	 5
8584.4 	 5
8584.5 	 5
8584.6 	 5
8584.7 	 6
8584.8 	 6
8584.9 	 6
8585.0 	 6
8585.1 	 6
8585.2 	 6
8585.3 	 6
8585.4 	 6
8585.5 	 7
8585.6 	 7
8585.7 	 7
8585.8 	 7
8585.9 	 8
8586.0 	 8
8586.1 	 8
8586.2 	 8
8586.3 	 8
8586.4 	 8
8586.5 	 8
8586.6 	 8
8586.7 	 8
8586.8 	 8
8586.9 	 8
8587.0 	 8
8587.1 	 7
8587.2 	 7
8587.3 	 10
8587.4 	 10
8587.5 	 9
8587.6 	 9
8587.7 	 9
8587.8 	 9
8587.9 	 9
8588.0 	 9
8588.1 	 10
8588.2 	 10
8588.3 	 10
8588.4 	 7
8588.5 	 7
8588.6 	 7
8588.7 	 7
8588.8 	 7
8588.9 	 7
8589.0 	 7
8589.1 	 8
8589.2 	 8
8589.3 	 8
8589.4 	 8
8589.5 	 8
8589.6 	 8
8589.7 	 8
8589.8 	 8
8589.9 	 7
8590.0 	 7
8590.1 	 6
8590.2 	 6
8590.3 	 6
8590.4 	 5
8590.5 	 5
8590.6 	 4
8590.7 	 4
8590.8 	 3
8591.0 	 0
8592.0 	 3
8592.1 	 3
8592.2 	 3
8592.3 	 3
8592.4 	 3
8592.5 	 3
8592.6 	 4
8592.7 	 4
8592.8 	 4
8592.9 	 4
8593.0 	 4
8593.1 	 5
8593.2 	 5
8593.3 	 5
8593.4 	 5
8593.5 	 4
8593.6 	 4
8593.7 	 4
8593.8 	 4
8593.9 	 4
8594.0 	 3
8594.1 	 3
8594.2 	 3
8594.3 	 3
8594.4 	 3
8594.5 	 3
8594.6 	 2
8594.7 	 2
8594.8 	 2
8594.9 	 2
8595.0 	 2
8595.2 	 0
8605.8 	 0
8605.9 	 16
8606.0 	 19
8606.1 	 51
8606.2 	 59
8606.3 	 68
8606.4 	 76
8606.5 	 84
8606.6 	 93
8606.7 	 101
8606.8 	 109
8606.9 	 116
8607.0 	 123
8607.1 	 131
8607.2 	 138
8607.3 	 146
8607.4 	 153
8607.5 	 160
8607.6 	 179
8607.7 	 192
8607.8 	 198
8607.9 	 204
8608.0 	 209
8608.1 	 214
8608.2 	 214
8608.3 	 214
8608.4 	 215
8608.5 	 215
8608.6 	 215
8608.7 	 214
8608.8 	 213
8608.9 	 212
8609.0 	 210
8609.1 	 208
8609.2 	 203
8609.3 	 199
8609.4 	 194
8609.5 	 191
8609.6 	 188
8609.7 	 184
8609.8 	 181
8609.9 	 177
8610.0 	 173
8610.1 	 165
8610.2 	 162
8610.3 	 159
8610.4 	 156
8610.5 	 154
8610.6 	 151
8610.7 	 149
8610.8 	 147
8610.9 	 144
8611.0 	 140
8611.1 	 136
8611.2 	 133
8611.3 	 130
8611.4 	 127
8611.5 	 123
8611.6 	 120
8611.7 	 116
8611.8 	 113
8611.9 	 109
8612.0 	 106
8612.1 	 103
8612.2 	 98
8612.3 	 94
8612.4 	 90
8612.5 	 86
8612.6 	 82
8612.7 	 78
8612.8 	 74
8612.9 	 69
8613.0 	 65
8613.1 	 55
8613.2 	 52
8613.3 	 49
8613.4 	 46
8613.5 	 43
8613.6 	 40
8613.7 	 37
8613.8 	 34
8613.9 	 30
8614.0 	 27
8614.1 	 25
8614.2 	 22
8614.3 	 20
8614.4 	 18
8614.5 	 16
8614.6 	 14
8614.7 	 12
8614.8 	 10
8614.9 	 8
8615.0 	 6
8615.2 	 0
8758.1 	 0
8758.2 	 0
8758.3 	 10
8758.4 	 11
8758.5 	 12
8758.6 	 14
8758.7 	 15
8758.8 	 16
8758.9 	 20
8759.0 	 22
8759.1 	 23
8759.2 	 25
8759.3 	 26
8759.4 	 28
8759.5 	 29
8759.6 	 30
8759.7 	 31
8759.8 	 32
8759.9 	 33
8760.0 	 34
8760.1 	 35
8760.2 	 36
8760.3 	 37
8760.4 	 38
8760.5 	 40
8760.6 	 43
8760.7 	 47
8760.8 	 51
8760.9 	 54
8761.0 	 57
8761.1 	 54
8761.2 	 63
8761.3 	 96
8761.4 	 110
8761.5 	 125
8761.6 	 140
8761.7 	 155
8761.8 	 170
8761.9 	 185
8762.0 	 200
8762.1 	 216
8762.2 	 291
8762.3 	 310
8762.4 	 329
8762.5 	 349
8762.6 	 370
8762.7 	 394
8762.8 	 425
8762.9 	 457
8763.0 	 489
8763.1 	 518
8763.2 	 542
8763.3 	 564
8763.4 	 587
8763.5 	 611
8763.6 	 634
8763.7 	 657
8763.8 	 675
8763.9 	 691
8764.0 	 706
8764.1 	 720
8764.2 	 729
8764.3 	 738
8764.4 	 746
8764.5 	 754
8764.6 	 761
8764.7 	 769
8764.8 	 777
8764.9 	 782
8765.0 	 770
8765.1 	 758
8765.2 	 747
8765.3 	 734
8765.4 	 722
8765.5 	 710
8765.6 	 698
8765.7 	 685
8765.8 	 673
8765.9 	 661
8766.0 	 648
8766.1 	 633
8766.2 	 620
8766.3 	 606
8766.4 	 593
8766.5 	 580
8766.6 	 567
8766.7 	 554
8766.8 	 540
8766.9 	 527
8767.0 	 512
8767.1 	 501
8767.2 	 495
8767.3 	 488
8767.4 	 482
8767.5 	 475
8767.6 	 469
8767.7 	 462
8767.8 	 456
8767.9 	 450
8768.0 	 443
8768.1 	 436
8768.2 	 426
8768.3 	 420
8768.4 	 414
8768.5 	 408
8768.6 	 400
8768.7 	 393
8768.8 	 385
8768.9 	 378
8769.0 	 370
8769.1 	 362
8769.2 	 354
8769.3 	 346
8769.4 	 334
8769.5 	 323
8769.6 	 311
8769.7 	 299
8769.8 	 286
8769.9 	 272
8770.0 	 259
8770.1 	 225
8770.2 	 217
8770.3 	 208
8770.4 	 200
8770.5 	 190
8770.6 	 180
8770.7 	 170
8770.8 	 160
8770.9 	 150
8771.0 	 141
8771.1 	 132
8771.2 	 123
8771.3 	 114
8771.4 	 105
8771.5 	 97
8771.6 	 89
8771.7 	 82
8771.8 	 75
8771.9 	 68
8772.0 	 60
8772.1 	 53
8772.2 	 48
8772.3 	 43
8772.4 	 39
8772.5 	 34
8772.6 	 26
8772.7 	 24
8772.8 	 23
8772.9 	 21
8773.0 	 20
8773.1 	 18
8773.2 	 12
8773.3 	 11
8773.4 	 12
8773.5 	 12
8773.6 	 12
8773.7 	 13
8773.8 	 14
8773.9 	 14
8774.0 	 14
8774.1 	 15
8774.2 	 16
8774.3 	 16
8774.4 	 16
8774.5 	 17
8774.6 	 17
8774.7 	 17
8774.8 	 17
8774.9 	 17
8775.0 	 17
8775.1 	 18
8775.2 	 18
8775.3 	 18
8775.4 	 18
8775.5 	 18
8775.6 	 18
8775.7 	 18
8775.8 	 21
8775.9 	 20
8776.0 	 19
8776.1 	 18
8776.2 	 18
8776.3 	 17
8776.4 	 16
8776.5 	 16
8776.6 	 15
8776.7 	 15
8776.8 	 14
8776.9 	 4
8777.0 	 4
8777.1 	 4
8777.2 	 4
8777.3 	 4
8777.4 	 4
8777.5 	 5
8777.6 	 5
8777.7 	 5
8777.8 	 5
8777.9 	 5
8778.0 	 4
8778.1 	 4
8778.2 	 4
8778.3 	 4
8778.4 	 4
8778.5 	 4
8778.6 	 4
8778.7 	 36
8778.8 	 36
8778.9 	 35
8779.0 	 34
8779.1 	 31
8779.2 	 34
8779.3 	 36
8779.4 	 38
8779.5 	 40
8779.6 	 16
8779.7 	 18
8779.8 	 21
8779.9 	 23
8780.0 	 26
8780.1 	 28
8780.2 	 31
8780.3 	 33
8780.4 	 36
8780.5 	 39
8780.6 	 42
8780.7 	 44
8780.8 	 47
8780.9 	 50
8781.0 	 52
8781.1 	 55
8781.2 	 58
8781.3 	 60
8781.4 	 62
8781.5 	 63
8781.6 	 64
8781.7 	 64
8781.8 	 64
8781.9 	 64
8782.0 	 63
8782.1 	 63
8782.2 	 63
8782.3 	 62
8782.4 	 62
8782.5 	 62
8782.6 	 60
8782.7 	 59
8782.8 	 58
8782.9 	 57
8783.0 	 55
8783.1 	 54
8783.2 	 52
8783.3 	 51
8783.4 	 49
8783.5 	 48
8783.6 	 46
8783.7 	 46
8783.8 	 46
8783.9 	 46
8784.0 	 45
8784.1 	 45
8784.2 	 45
8784.3 	 45
8784.4 	 45
8784.5 	 45
8784.6 	 44
8784.7 	 45
8784.8 	 45
8784.9 	 46
8785.0 	 47
8785.1 	 48
8785.2 	 49
8785.3 	 50
8785.4 	 51
8785.5 	 52
8785.6 	 53
8785.7 	 54
8785.8 	 55
8785.9 	 55
8786.0 	 55
8786.1 	 55
8786.2 	 54
8786.3 	 54
8786.4 	 54
8786.5 	 53
8786.6 	 53
8786.7 	 52
8786.8 	 52
8786.9 	 51
8787.0 	 48
8787.1 	 46
8787.2 	 44
8787.3 	 42
8787.4 	 40
8787.5 	 38
8787.6 	 36
8787.7 	 34
8787.8 	 31
8787.9 	 29
8788.0 	 26
8788.1 	 26
8788.2 	 25
8788.3 	 24
8788.4 	 23
8788.5 	 22
8788.6 	 6
8788.7 	 5
8788.8 	 4
8789.0 	 0
8790.8 	 8
8790.9 	 7
8791.0 	 7
8791.1 	 7
8791.2 	 6
8791.3 	 6
8791.4 	 6
8791.5 	 7
8791.6 	 7
8791.7 	 8
8791.8 	 8
8791.9 	 8
8792.0 	 9
8792.1 	 9
8792.2 	 9
8792.3 	 10
8792.4 	 10
8792.5 	 10
8792.6 	 9
8792.7 	 9
8792.8 	 8
8792.9 	 8
8793.0 	 8
8793.1 	 7
8793.2 	 7
8793.3 	 7
8793.4 	 6
8793.6 	 0
8890.8 	 0
8890.9 	 16
8891.0 	 20
8891.1 	 23
8891.2 	 27
8891.3 	 31
8891.4 	 45
8891.5 	 20
8891.6 	 30
8891.7 	 41
8891.8 	 51
8891.9 	 61
8892.0 	 71
8892.1 	 115
8892.2 	 144
8892.3 	 174
8892.4 	 204
8892.5 	 235
8892.6 	 282
8892.7 	 410
8892.8 	 460
8892.9 	 511
8893.0 	 633
8893.1 	 435
8893.2 	 525
8893.3 	 616
8893.4 	 730
8893.5 	 849
8893.6 	 964
8893.7 	 1127
8893.8 	 1248
8893.9 	 1374
8894.0 	 1516
8894.1 	 1658
8894.2 	 2391
8894.3 	 2564
8894.4 	 2736
8894.5 	 2908
8894.6 	 3094
8894.7 	 3312
8894.8 	 3743
8894.9 	 4171
8895.0 	 4634
8895.1 	 5132
8895.2 	 5871
8895.3 	 6610
8895.4 	 7346
8895.5 	 8082
8895.6 	 8819
8895.7 	 9549
8895.8 	 10277
8895.9 	 11135
8896.0 	 11993
8896.1 	 12891
8896.2 	 13948
8896.3 	 15006
8896.4 	 16062
8896.5 	 17115
8896.6 	 18168
8896.7 	 19223
8896.8 	 20278
8896.9 	 21306
8897.0 	 22144
8897.1 	 22936
8897.2 	 23560
8897.3 	 24185
8897.4 	 24808
8897.5 	 25427
8897.6 	 26038
8897.7 	 26649
8897.8 	 27261
8897.9 	 27874
8898.0 	 28452
8898.1 	 28647
8898.2 	 28267
8898.3 	 27886
8898.4 	 27495
8898.5 	 27075
8898.6 	 26653
8898.7 	 26232
8898.8 	 25810
8898.9 	 25389
8899.0 	 24968
8899.1 	 24492
8899.2 	 23750
8899.3 	 22988
8899.4 	 22180
8899.5 	 21372
8899.6 	 20565
8899.7 	 19757
8899.8 	 18949
8899.9 	 18142
8900.0 	 17337
8900.1 	 16580
8900.2 	 16006
8900.3 	 15441
8900.4 	 14876
8900.5 	 14309
8900.6 	 13716
8900.7 	 13125
8900.8 	 12533
8900.9 	 11942
8901.0 	 11352
8901.1 	 10832
8901.2 	 10559
8901.3 	 10287
8901.4 	 10023
8901.5 	 9759
8901.6 	 9496
8901.7 	 9229
8901.8 	 8915
8901.9 	 8601
8902.0 	 8295
8902.1 	 8006
8902.2 	 7695
8902.3 	 7384
8902.4 	 7075
8902.5 	 6774
8902.6 	 6471
8902.7 	 6145
8902.8 	 5842
8902.9 	 5539
8903.0 	 5240
8903.1 	 4943
8903.2 	 4651
8903.3 	 4335
8903.4 	 4045
8903.5 	 3764
8903.6 	 3545
8903.7 	 3327
8903.8 	 3109
8903.9 	 2890
8904.0 	 2672
8904.1 	 2458
8904.2 	 2285
8904.3 	 2112
8904.4 	 1940
8904.5 	 1767
8904.6 	 1604
8904.7 	 1505
8904.8 	 1407
8904.9 	 1308
8905.0 	 1210
8905.1 	 1116
8905.2 	 1041
8905.3 	 968
8905.4 	 917
8905.5 	 867
8905.6 	 817
8905.7 	 774
8905.8 	 762
8905.9 	 760
8906.0 	 759
8906.1 	 761
8906.2 	 775
8906.3 	 790
8906.4 	 805
8906.5 	 820
8906.6 	 830
8906.7 	 840
8906.8 	 848
8906.9 	 842
8907.0 	 837
8907.1 	 837
8907.2 	 827
8907.3 	 817
8907.4 	 792
8907.5 	 783
8907.6 	 775
8907.7 	 766
8907.8 	 756
8907.9 	 745
8908.0 	 728
8908.1 	 538
8908.2 	 522
8908.3 	 511
8908.4 	 494
8908.5 	 478
8908.6 	 616
8908.7 	 596
8908.8 	 570
8908.9 	 550
8909.0 	 259
8909.1 	 251
8909.2 	 241
8909.3 	 232
8909.4 	 223
8909.5 	 214
8909.6 	 410
8909.7 	 389
8909.8 	 369
8909.9 	 348
8910.0 	 328
8910.1 	 310
8910.2 	 305
8910.3 	 298
8910.4 	 294
8910.5 	 289
8910.6 	 292
8910.7 	 288
8910.8 	 283
8910.9 	 279
8911.0 	 275
8911.1 	 273
8911.2 	 276
8911.3 	 286
8911.4 	 299
8911.5 	 313
8911.6 	 326
8911.7 	 339
8911.8 	 352
8911.9 	 365
8912.0 	 378
8912.1 	 390
8912.2 	 401
8912.3 	 412
8912.4 	 421
8912.5 	 361
8912.6 	 368
8912.7 	 375
8912.8 	 382
8912.9 	 387
8913.0 	 392
8913.1 	 475
8913.2 	 475
8913.3 	 476
8913.4 	 475
8913.5 	 471
8913.6 	 466
8913.7 	 462
8913.8 	 453
8913.9 	 444
8914.0 	 435
8914.1 	 426
8914.2 	 415
8914.3 	 404
8914.4 	 392
8914.5 	 381
8914.6 	 370
8914.7 	 360
8914.8 	 350
8914.9 	 340
8915.0 	 329
8915.1 	 320
8915.2 	 319
8915.3 	 317
8915.4 	 316
8915.5 	 315
8915.6 	 316
8915.7 	 325
8915.8 	 334
8915.9 	 343
8916.0 	 352
8916.1 	 364
8916.2 	 387
8916.3 	 410
8916.4 	 433
8916.5 	 457
8916.6 	 480
8916.7 	 504
8916.8 	 533
8916.9 	 562
8917.0 	 592
8917.1 	 621
8917.2 	 649
8917.3 	 677
8917.4 	 707
8917.5 	 738
8917.6 	 768
8917.7 	 824
8917.8 	 856
8917.9 	 883
8918.0 	 911
8918.1 	 937
8918.2 	 951
8918.3 	 966
8918.4 	 980
8918.5 	 994
8918.6 	 1006
8918.7 	 1017
8918.8 	 1029
8918.9 	 1039
8919.0 	 1037
8919.1 	 1034
8919.2 	 1029
8919.3 	 1024
8919.4 	 1019
8919.5 	 1014
8919.6 	 1010
8919.7 	 1005
8919.8 	 995
8919.9 	 985
8920.0 	 974
8920.1 	 969
8920.2 	 961
8920.3 	 953
8920.4 	 945
8920.5 	 936
8920.6 	 928
8920.7 	 920
8920.8 	 912
8920.9 	 904
8921.0 	 893
8921.1 	 882
8921.2 	 877
8921.3 	 872
8921.4 	 867
8921.5 	 862
8921.6 	 856
8921.7 	 851
8921.8 	 844
8921.9 	 836
8922.0 	 829
8922.1 	 820
8922.2 	 806
8922.3 	 796
8922.4 	 786
8922.5 	 750
8922.6 	 741
8922.7 	 710
8922.8 	 703
8922.9 	 697
8923.0 	 691
8923.1 	 683
8923.2 	 671
8923.3 	 658
8923.4 	 643
8923.5 	 628
8923.6 	 613
8923.7 	 598
8923.8 	 583
8923.9 	 568
8924.0 	 554
8924.1 	 539
8924.2 	 526
8924.3 	 514
8924.4 	 500
8924.5 	 482
8924.6 	 463
8924.7 	 445
8924.8 	 426
8924.9 	 408
8925.0 	 390
8925.1 	 372
8925.2 	 360
8925.3 	 346
8925.4 	 333
8925.5 	 321
8925.6 	 308
8925.7 	 295
8925.8 	 282
8925.9 	 268
8926.0 	 255
8926.1 	 243
8926.2 	 235
8926.3 	 227
8926.4 	 219
8926.5 	 210
8926.6 	 203
8926.7 	 200
8926.8 	 215
8926.9 	 212
8927.0 	 212
8927.1 	 212
8927.2 	 211
8927.3 	 210
8927.4 	 209
8927.5 	 186
8927.6 	 185
8927.7 	 185
8927.8 	 191
8927.9 	 199
8928.0 	 205
8928.1 	 85
8928.2 	 88
8928.3 	 92
8928.4 	 96
8928.5 	 100
8928.6 	 214
8928.7 	 215
8928.8 	 216
8928.9 	 217
8929.0 	 201
8929.1 	 202
8929.2 	 203
8929.3 	 203
8929.4 	 203
8929.5 	 203
8929.6 	 203
8929.7 	 203
8929.8 	 203
8929.9 	 83
8930.0 	 79
8930.1 	 75
8930.2 	 73
8930.3 	 71
8930.4 	 69
8930.5 	 67
8930.6 	 66
8930.7 	 66
8930.8 	 65
8930.9 	 65
8931.0 	 64
8931.1 	 64
8931.2 	 67
8931.3 	 70
8931.4 	 73
8931.5 	 76
8931.6 	 79
8931.7 	 82
8931.8 	 83
8931.9 	 84
8932.0 	 85
8932.1 	 85
8932.2 	 85
8932.3 	 85
8932.4 	 85
8932.5 	 85
8932.6 	 85
8932.7 	 84
8932.8 	 84
8932.9 	 57
8933.0 	 58
8933.1 	 58
8933.2 	 55
8933.3 	 53
8933.4 	 50
8933.5 	 48
8933.6 	 46
8933.7 	 43
8933.8 	 41
8933.9 	 38
8934.0 	 36
8934.1 	 33
8934.2 	 31
8934.3 	 28
8934.4 	 25
8934.5 	 23
8934.6 	 20
8934.7 	 17
8934.8 	 14
8934.9 	 12
8935.0 	 9
8935.2 	 0
8940.8 	 0
8940.9 	 5
8941.0 	 5
8941.1 	 5
8941.2 	 6
8941.3 	 6
8941.4 	 6
8942.0 	 0
8942.1 	 9
8942.2 	 10
8942.3 	 10
8942.4 	 11
8942.5 	 12
8942.6 	 12
8942.7 	 13
8942.8 	 13
8942.9 	 14
8943.0 	 14
8943.1 	 15
8943.2 	 14
8943.3 	 14
8943.4 	 13
8943.5 	 12
8943.6 	 12
8943.7 	 11
8943.8 	 11
8943.9 	 10
8944.0 	 10
8944.1 	 9
8944.2 	 9
8944.3 	 9
8944.4 	 8
8944.5 	 8
8944.8 	 11
8944.9 	 11
8945.0 	 12
8945.1 	 12
8945.2 	 12
8945.3 	 12
8945.4 	 13
8945.5 	 15
8945.6 	 23
8945.7 	 24
8945.8 	 25
8945.9 	 26
8946.0 	 27
8946.1 	 29
8946.2 	 33
8946.3 	 38
8946.4 	 42
8946.5 	 45
8946.6 	 48
8946.7 	 52
8946.8 	 55
8946.9 	 58
8947.0 	 61
8947.1 	 65
8947.2 	 69
8947.3 	 72
8947.4 	 76
8947.5 	 80
8947.6 	 82
8947.7 	 85
8947.8 	 87
8947.9 	 90
8948.0 	 92
8948.1 	 94
8948.2 	 92
8948.3 	 91
8948.4 	 89
8948.5 	 88
8948.6 	 87
8948.7 	 88
8948.8 	 89
8948.9 	 90
8949.0 	 91
8949.1 	 92
8949.2 	 90
8949.3 	 89
8949.4 	 88
8949.5 	 87
8949.6 	 85
8949.7 	 85
8949.8 	 87
8949.9 	 90
8950.0 	 93
8950.1 	 96
8950.2 	 100
8950.3 	 104
8950.4 	 108
8950.5 	 112
8950.6 	 116
8950.7 	 120
8950.8 	 124
8950.9 	 129
8951.0 	 133
8951.1 	 138
8951.2 	 145
8951.3 	 152
8951.4 	 159
8951.5 	 166
8951.6 	 173
8951.7 	 180
8951.8 	 187
8951.9 	 193
8952.0 	 192
8952.1 	 192
8952.2 	 191
8952.3 	 189
8952.4 	 188
8952.5 	 187
8952.6 	 186
8952.7 	 184
8952.8 	 183
8952.9 	 182
8953.0 	 180
8953.1 	 174
8953.2 	 167
8953.3 	 159
8953.4 	 151
8953.5 	 144
8953.6 	 136
8953.7 	 128
8953.8 	 121
8953.9 	 113
8954.0 	 106
8954.1 	 98
8954.2 	 91
8954.3 	 84
8954.4 	 77
8954.5 	 70
8954.6 	 63
8954.7 	 56
8954.8 	 50
8954.9 	 43
8955.0 	 36
8955.1 	 47
8955.2 	 42
8955.3 	 42
8955.4 	 40
8955.5 	 39
8955.6 	 38
8955.7 	 37
8955.8 	 35
8955.9 	 33
8956.0 	 31
8956.1 	 29
8956.2 	 27
8956.3 	 25
8956.4 	 24
8956.5 	 22
8956.6 	 21
8956.7 	 20
8956.8 	 18
8956.9 	 7
8957.0 	 7
8957.1 	 7
8957.2 	 6
8957.3 	 6
8957.4 	 6
8957.5 	 6
8957.6 	 6
8957.7 	 6
8957.8 	 6
8957.9 	 6
8958.0 	 5
8958.1 	 5
8958.2 	 5
8958.3 	 5
8958.4 	 5
8958.6 	 0
9034.3 	 0
9034.4 	 4
9034.5 	 4
9034.6 	 4
9034.7 	 5
9034.8 	 5
9034.9 	 5
9039.0 	 0
9039.1 	 21
9039.2 	 23
9039.3 	 26
9039.4 	 29
9039.5 	 32
9039.6 	 35
9039.7 	 37
9039.8 	 40
9039.9 	 43
9040.0 	 46
9040.1 	 49
9040.2 	 52
9040.3 	 55
9040.4 	 58
9040.5 	 78
9040.6 	 81
9040.7 	 84
9040.8 	 87
9040.9 	 90
9041.0 	 94
9041.1 	 99
9041.2 	 103
9041.3 	 107
9041.4 	 110
9041.5 	 114
9041.6 	 118
9041.7 	 122
9041.8 	 125
9041.9 	 129
9042.0 	 133
9042.1 	 136
9042.2 	 139
9042.3 	 142
9042.4 	 173
9042.5 	 177
9042.6 	 182
9042.7 	 187
9042.8 	 191
9042.9 	 196
9043.0 	 201
9043.1 	 205
9043.2 	 206
9043.3 	 205
9043.4 	 201
9043.5 	 197
9043.6 	 193
9043.7 	 189
9043.8 	 185
9043.9 	 181
9044.0 	 178
9044.1 	 174
9044.2 	 140
9044.3 	 138
9044.4 	 134
9044.5 	 144
9044.6 	 140
9044.7 	 137
9044.8 	 133
9044.9 	 129
9045.0 	 126
9045.1 	 123
9045.2 	 123
9045.3 	 123
9045.4 	 122
9045.5 	 118
9045.6 	 115
9045.7 	 111
9045.8 	 106
9045.9 	 101
9046.0 	 96
9046.1 	 92
9046.2 	 89
9046.3 	 87
9046.4 	 84
9046.5 	 82
9046.6 	 81
9046.7 	 80
9046.8 	 78
9046.9 	 77
9047.0 	 76
9047.1 	 75
9047.2 	 73
9047.3 	 70
9047.4 	 68
9047.5 	 55
9047.6 	 45
9047.7 	 45
9047.8 	 46
9047.9 	 47
9048.0 	 47
9048.1 	 48
9048.2 	 45
9048.3 	 43
9048.4 	 41
9048.5 	 39
9048.6 	 36
9048.7 	 34
9048.8 	 32
9048.9 	 30
9049.0 	 28
9049.1 	 26
9049.2 	 23
9049.3 	 21
9049.4 	 19
9049.5 	 17
9049.6 	 14
9049.7 	 12
9049.8 	 10
9049.9 	 16
9050.0 	 14
9050.1 	 8
9050.2 	 8
9050.3 	 8
9050.4 	 8
9050.5 	 8
9050.6 	 8
9050.7 	 9
9050.8 	 9
9050.9 	 10
9051.0 	 10
9051.1 	 10
9051.2 	 11
9051.3 	 11
9051.4 	 12
9051.5 	 12
9051.6 	 13
9051.7 	 13
9051.8 	 13
9051.9 	 12
9052.0 	 12
9052.1 	 11
9052.2 	 11
9052.3 	 10
9052.4 	 10
9052.5 	 10
9052.6 	 9
9052.7 	 9
9052.8 	 8
9053.0 	 0
9564.1 	 0
9564.3 	 6
9564.4 	 6
9564.5 	 7
9564.6 	 7
9564.7 	 7
9564.8 	 7
9564.9 	 8
9565.0 	 8
9565.1 	 8
9565.2 	 8
9565.3 	 8
9565.4 	 9
9565.5 	 9
9565.6 	 9
9565.7 	 8
9565.8 	 8
9565.9 	 8
9566.0 	 8
9566.1 	 8
9566.2 	 7
9566.3 	 7
9566.4 	 7
9566.5 	 7
9566.6 	 6
9566.7 	 6
9566.9 	 0
9731.7 	 0
9731.8 	 8
9731.9 	 8
9732.0 	 9
9732.1 	 9
9732.2 	 10
9732.3 	 10
9732.4 	 10
9732.5 	 11
9732.6 	 11
9732.7 	 11
9732.8 	 12
9732.9 	 12
9733.0 	 12
9733.1 	 11
9733.2 	 11
9733.3 	 10
9733.4 	 10
9733.5 	 10
9733.6 	 9
9733.7 	 9
9733.8 	 9
9733.9 	 8
9734.1 	 0
10586.4 	 0
10586.5 	 8
10586.6 	 8
10586.7 	 9
10586.8 	 9
10586.9 	 9
10587.0 	 10
10587.1 	 10
10587.2 	 10
10587.3 	 11
10587.4 	 11
10587.5 	 11
10587.6 	 12
10587.7 	 12
10587.8 	 12
10587.9 	 11
10588.0 	 11
10588.1 	 11
10588.2 	 10
10588.3 	 10
10588.4 	 10
10588.5 	 9
10588.6 	 9
10588.7 	 9
10588.8 	 8
10589.0 	 0
10900.0 	 1
##ESI mass spectrum
##Adduct mass = -1.0079
626.8 	 19
672.7 	 3
672.8 	 13
672.9 	 23
673.0 	 26
673.1 	 30
673.2 	 40
673.3 	 49
673.4 	 45
673.5 	 35
673.6 	 23
673.7 	 13
673.8 	 5
674.1 	 3
674.2 	 5
674.3 	 3
675.3 	 3
675.4 	 2
678.1 	 4
678.2 	 13
678.3 	 23
678.4 	 20
678.5 	 8
680.3 	 2
680.4 	 2
682.0 	 2
682.1 	 3
682.2 	 2
682.4 	 6
682.5 	 12
682.6 	 10
682.7 	 3
683.1 	 5
683.2 	 28
683.3 	 55
683.4 	 59
683.5 	 48
683.6 	 48
683.7 	 65
683.8 	 70
683.9 	 43
684.0 	 13
684.2 	 4
684.3 	 4
684.4 	 2
685.2 	 7
685.3 	 12
685.4 	 8
685.5 	 2
685.8 	 2
686.8 	 2
687.3 	 2
687.4 	 3
687.5 	 4
687.6 	 3
688.6 	 2
688.7 	 6
688.8 	 6
688.9 	 3
693.6 	 2
693.7 	 8
693.8 	 13
693.9 	 8
694.0 	 2
694.3 	 2
695.7 	 2
695.8 	 4
695.9 	 2
696.7 	 3
696.8 	 5
696.9 	 3
697.6 	 2
697.7 	 10
697.8 	 16
697.9 	 10
698.0 	 2
698.7 	 3
698.8 	 3
699.2 	 4
699.3 	 6
699.4 	 4
701.1 	 3
701.2 	 14
701.3 	 26
701.4 	 25
701.5 	 16
701.6 	 9
701.7 	 14
701.8 	 20
701.9 	 14
702.0 	 3
703.6 	 2
703.7 	 3
703.8 	 5
703.9 	 3
705.1 	 6
705.2 	 12
705.3 	 16
705.4 	 13
705.5 	 11
705.6 	 5
705.7 	 2
707.2 	 2
707.3 	 4
707.4 	 2
713.0 	 3
713.1 	 12
713.2 	 17
713.3 	 14
713.4 	 5
714.6 	 3
714.7 	 7
714.8 	 8
714.9 	 3
716.3 	 5
716.4 	 7
716.5 	 4
718.8 	 2
719.7 	 5
719.8 	 7
719.9 	 4
720.2 	 4
720.3 	 7
720.4 	 4
729.1 	 23
729.2 	 94
729.3 	 187
729.4 	 221
729.5 	 207
729.6 	 182
729.7 	 166
729.8 	 133
729.9 	 74
730.0 	 28
730.1 	 11
730.2 	 17
730.3 	 18
730.4 	 10
730.6 	 2
730.7 	 13
730.8 	 23
730.9 	 21
731.0 	 15
731.1 	 12
731.2 	 13
731.3 	 10
731.4 	 4
732.8 	 5
732.9 	 8
733.0 	 5
733.3 	 6
733.4 	 4
734.7 	 6
734.8 	 9
734.9 	 6
736.7 	 9
736.8 	 15
736.9 	 9
738.8 	 5
739.2 	 4
739.9 	 16
740.1 	 103
740.2 	 421
740.3 	 939
740.4 	 1332
740.5 	 1521
740.6 	 1759
740.7 	 1985
740.8 	 1863
740.9 	 1131
741.0 	 491
741.1 	 224
741.2 	 250
741.3 	 193
741.4 	 119
741.5 	 58
741.6 	 43
741.7 	 70
741.8 	 88
741.9 	 63
742.0 	 24
742.1 	 36
742.2 	 104
742.3 	 169
742.4 	 173
742.5 	 146
742.6 	 116
742.7 	 93
742.8 	 59
742.9 	 23
743.2 	 19
743.3 	 35
743.4 	 27
743.5 	 7
743.7 	 17
743.8 	 30
743.9 	 20
744.0 	 8
744.1 	 13
744.2 	 31
744.3 	 33
744.4 	 16
744.7 	 6
744.8 	 4
745.1 	 9
745.2 	 21
745.3 	 22
745.4 	 10
748.8 	 4
750.2 	 4
750.3 	 6
750.4 	 4
752.7 	 14
752.8 	 20
752.9 	 11
753.2 	 8
753.3 	 13
753.4 	 8
755.2 	 8
755.3 	 12
755.4 	 8
767.2 	 6
767.3 	 10
767.4 	 6
767.7 	 6
767.8 	 10
767.9 	 6
768.2 	 14
768.3 	 22
768.4 	 14
777.7 	 7
777.8 	 11
777.9 	 7
778.3 	 5
779.2 	 9
779.3 	 19
779.4 	 21
779.5 	 20
779.6 	 25
779.7 	 33
779.8 	 30
779.9 	 14
781.5 	 11
781.6 	 30
781.7 	 42
781.8 	 42
781.9 	 20
782.0 	 4
783.3 	 4
792.2 	 6
792.3 	 10
792.4 	 6
795.2 	 6
795.3 	 11
795.4 	 11
795.6 	 72
795.7 	 212
795.8 	 321
795.9 	 257
796.0 	 153
796.1 	 105
796.2 	 112
796.3 	 83
796.4 	 35
796.5 	 4
797.1 	 4
797.2 	 22
797.3 	 42
797.4 	 40
797.5 	 29
797.6 	 31
797.7 	 43
797.8 	 39
797.9 	 18
798.2 	 6
798.3 	 10
798.4 	 6
802.2 	 5
802.3 	 8
802.4 	 5
807.3 	 9
807.4 	 120
807.6 	 721
807.7 	 3745
807.8 	 8408
807.9 	 10838
808.0 	 10366
808.1 	 8133
808.2 	 5943
808.3 	 3853
808.4 	 1871
808.5 	 676
808.6 	 294
808.7 	 426
808.8 	 389
808.9 	 273
809.0 	 151
809.1 	 111
809.2 	 158
809.3 	 189
809.4 	 168
809.5 	 140
809.6 	 209
809.7 	 347
809.8 	 441
809.9 	 380
810.0 	 283
810.1 	 240
810.2 	 251
810.3 	 232
810.4 	 155
810.5 	 72
810.6 	 45
810.7 	 92
810.8 	 139
810.9 	 113
811.0 	 48
811.1 	 15
811.2 	 41
811.3 	 70
811.4 	 52
811.5 	 16
811.8 	 5
812.2 	 12
812.3 	 26
812.4 	 29
812.5 	 16
812.6 	 31
812.7 	 90
812.8 	 153
812.9 	 137
813.0 	 75
813.1 	 21
813.2 	 9
813.3 	 6
813.4 	 5
818.6 	 6
818.7 	 23
818.8 	 33
818.9 	 18
819.2 	 8
819.3 	 12
819.4 	 8
819.6 	 7
819.7 	 22
819.8 	 30
819.9 	 17
820.0 	 4
820.3 	 4
820.9 	 18
821.0 	 47
821.1 	 86
821.2 	 103
821.3 	 92
821.4 	 43
821.5 	 8
824.2 	 5
824.3 	 8
824.4 	 5
825.3 	 5
830.7 	 18
830.8 	 35
830.9 	 31
831.0 	 12
855.6 	 8
855.7 	 39
855.8 	 70
855.9 	 61
856.0 	 34
856.1 	 15
856.2 	 15
856.3 	 13
856.4 	 7
857.1 	 7
857.2 	 37
857.3 	 70
857.4 	 64
857.5 	 43
857.6 	 32
857.7 	 33
857.8 	 23
857.9 	 9
859.6 	 27
859.7 	 76
859.8 	 127
859.9 	 125
860.0 	 98
860.1 	 79
860.2 	 74
860.3 	 56
860.4 	 25
860.5 	 4
875.1 	 20
875.2 	 105
875.3 	 205
875.4 	 218
875.5 	 165
875.6 	 119
875.7 	 117
875.8 	 118
875.9 	 73
876.0 	 21
876.6 	 4
876.7 	 18
876.8 	 29
876.9 	 21
877.0 	 6
877.1 	 12
877.2 	 38
877.3 	 55
877.4 	 34
877.5 	 5
877.6 	 5
877.7 	 34
877.8 	 51
877.9 	 32
878.0 	 7
881.2 	 8
881.3 	 12
881.4 	 8
883.7 	 8
883.8 	 12
883.9 	 8
888.2 	 30
888.3 	 224
888.4 	 778
888.5 	 1370
888.6 	 5023
888.7 	 10685
888.8 	 14217
888.9 	 10413
889.0 	 5014
889.1 	 1908
889.2 	 1634
889.3 	 1087
889.4 	 603
889.5 	 263
889.6 	 138
889.7 	 175
889.8 	 173
889.9 	 139
890.0 	 99
890.1 	 102
890.2 	 148
890.3 	 176
890.4 	 139
890.5 	 78
890.6 	 113
890.7 	 249
890.8 	 374
890.9 	 368
891.0 	 330
891.1 	 334
891.2 	 351
891.3 	 307
891.4 	 199
891.5 	 113
891.6 	 87
891.7 	 111
891.8 	 126
891.9 	 98
892.0 	 56
892.1 	 37
892.2 	 53
892.3 	 58
892.4 	 34
892.5 	 7
893.2 	 9
893.3 	 15
893.4 	 9
893.6 	 6
893.7 	 36
893.8 	 72
893.9 	 69
894.0 	 43
894.1 	 30
894.2 	 42
894.3 	 44
894.4 	 24
894.5 	 4
895.2 	 9
895.3 	 14
895.4 	 9
896.7 	 7
896.8 	 11
896.9 	 7
900.2 	 6
900.3 	 9
900.4 	 4
900.6 	 19
900.7 	 53
900.8 	 61
900.9 	 31
901.2 	 15
901.3 	 22
901.4 	 14
901.7 	 19
901.8 	 29
901.9 	 18
902.0 	 4
902.9 	 20
903.0 	 48
903.1 	 78
903.2 	 89
903.3 	 80
903.4 	 42
903.5 	 11
903.6 	 14
903.7 	 41
903.8 	 48
903.9 	 26
904.0 	 4
917.3 	 2
919.7 	 2
919.8 	 4
919.9 	 2
920.2 	 5
920.3 	 8
920.4 	 5
922.2 	 6
922.3 	 10
922.4 	 6
923.2 	 2
923.3 	 4
923.4 	 2
950.6 	 2
950.7 	 11
950.8 	 18
950.9 	 12
951.0 	 8
951.1 	 19
951.2 	 38
951.3 	 43
951.4 	 24
951.5 	 5
952.7 	 3
952.8 	 5
952.9 	 6
953.0 	 8
953.1 	 8
953.2 	 4
953.7 	 3
953.8 	 5
953.9 	 3
954.0 	 2
955.2 	 15
955.3 	 46
955.4 	 67
955.5 	 55
955.6 	 33
955.7 	 22
955.8 	 19
955.9 	 10
956.0 	 2
958.7 	 2
958.8 	 4
958.9 	 2
972.2 	 3
972.3 	 6
972.4 	 8
972.5 	 10
972.6 	 13
972.7 	 21
972.8 	 28
972.9 	 24
973.0 	 12
973.1 	 2
974.4 	 29
974.5 	 27
987.1 	 63
987.2 	 344
987.3 	 809
987.4 	 1223
987.5 	 1508
987.6 	 1806
987.7 	 1996
987.8 	 1854
987.9 	 1169
988.0 	 549
988.1 	 232
988.2 	 205
988.3 	 150
988.4 	 99
988.5 	 54
988.6 	 25
988.7 	 16
988.8 	 6
989.1 	 8
989.2 	 27
989.3 	 41
989.4 	 38
989.5 	 28
989.6 	 36
989.7 	 58
989.8 	 78
989.9 	 76
990.0 	 72
990.1 	 73
990.2 	 70
990.3 	 50
990.4 	 23
990.9 	 18
991.0 	 20
991.1 	 17
993.3 	 17
993.4 	 27
993.5 	 24
1003.7 	 28
1003.8 	 46
1003.9 	 31
1110.7 	 45
1110.8 	 94
1110.9 	 112
1111.0 	 106
1111.1 	 105
1111.2 	 126
1111.3 	 148
1111.4 	 138
1111.5 	 107
1111.6 	 74
1111.7 	 56
1111.8 	 41
1111.9 	 25
1113.7 	 25
1113.8 	 36
1113.9 	 27
1114.0 	 19
1114.1 	 21
1114.2 	 30
1114.3 	 27
1269.7 	 33
1269.8 	 73
1269.9 	 92
1270.0 	 82
1270.1 	 70
1270.2 	 69
1270.3 	 63
1270.4 	 38
1270.5 	 20
1270.6 	 20
1270.7 	 26
1270.8 	 22
1322.7 	 17
1322.8 	 22
